Campo	Densidad de fl B
H/A/m	B/T

-2,863	0,010
-1,310	0,010
-0,655	0,010
-1,412	0,010
-2,029	0,010
-1,387	0,011
-2,131	0,010
-1,387	0,010
-1,310	0,010
-1,348	0,010
-1,900	0,010
0,205	0,011
-1,489	0,010
-1,233	0,011
-1,733	0,010
-1,682	0,010
-1,785	0,010
-1,348	0,010
-1,605	0,011
-2,157	0,010
-7,319	0,010
-3,017	0,010
-3,826	0,010
-7,409	0,010
-73,537	0,009
-70,971	0,005
-72,126	0,005
-80,468	0,005
-86,628	0,005
-88,425	0,004
-92,018	0,004
-96,381	0,004
-107,675	0,004
-113,964	0,003
-128,209	0,002
-138,348	0,001
-145,021	0,000
-149,641	-0,001
-151,823	-0,001
-158,240	-0,001
-163,502	-0,001
-169,020	-0,002
-170,817	-0,002
-178,517	-0,002
-187,629	-0,003
-191,351	-0,004
-195,843	-0,004
-205,083	-0,004
-215,350	-0,006
-220,612	-0,006
-226,387	-0,006
-228,826	-0,007
-230,879	-0,007
-233,574	-0,007
-235,884	-0,007
-253,595	-0,008
-256,033	-0,010
-278,057	-0,010
-267,803	-0,011
-283,579	-0,011
-306,455	-0,013
-320,259	-0,015
-338,796	-0,015
-337,219	-0,016
-331,697	-0,016
-332,091	-0,017
-331,302	-0,017
-334,063	-0,017
-336,430	-0,017
-352,206	-0,018
-364,433	-0,019
-364,433	-0,019
-369,166	-0,019
-372,321	-0,020
-365,222	-0,021
-383,759	-0,022
-381,392	-0,022
-405,057	-0,022
-416,495	-0,024
-410,578	-0,026
-438,187	-0,028
-416,100	-0,028
-423,988	-0,029
-416,889	-0,029
-439,370	-0,029
-439,370	-0,030
-446,470	-0,032
-440,948	-0,032
-442,131	-0,033
-449,625	-0,033
-451,991	-0,034
-470,923	-0,037
-496,559	-0,042
-485,910	-0,045
-488,277	-0,046
-490,249	-0,045
-501,687	-0,045
-490,249	-0,046
-500,109	-0,045
-498,531	-0,046
-496,559	-0,046
-518,646	-0,048
-527,323	-0,051
-534,028	-0,053
-532,845	-0,054
-539,550	-0,055
-532,845	-0,056
-544,677	-0,056
-545,071	-0,058
-567,553	-0,058
-551,776	-0,059
-555,326	-0,060
-573,074	-0,062
-580,963	-0,064
-569,919	-0,065
-572,286	-0,066
-580,963	-0,066
-575,441	-0,066
-588,851	-0,066
-583,329	-0,066
-594,372	-0,067
-606,599	-0,068
-607,388	-0,071
-594,767	-0,072
-604,627	-0,072
-605,416	-0,071
-597,922	-0,072
-595,556	-0,072
-603,444	-0,071
-590,823	-0,072
-607,388	-0,070
-586,484	-0,070
-590,428	-0,068
-586,879	-0,070
-595,556	-0,070
-586,484	-0,070
-592,400	-0,069
-596,739	-0,069
-587,273	-0,070
-589,640	-0,070
-582,935	-0,070
-566,370	-0,070
-562,820	-0,068
-549,804	-0,067
-545,466	-0,067
-541,127	-0,067
-550,593	-0,068
-559,665	-0,067
-527,323	-0,066
-506,025	-0,065
-511,941	-0,064
-516,674	-0,064
-504,447	-0,065
-495,771	-0,065
-498,926	-0,064
-475,656	-0,064
-469,345	-0,062
-456,330	-0,062
-447,653	-0,061
-446,075	-0,060
-451,991	-0,059
-437,793	-0,060
-422,016	-0,059
-417,283	-0,059
-426,355	-0,058
-412,156	-0,059
-396,774	-0,058
-402,690	-0,057
-386,520	-0,057
-374,687	-0,056
-368,771	-0,055
-371,138	-0,055
-375,476	-0,055
-352,600	-0,054
-356,545	-0,054
-344,318	-0,052
-337,219	-0,052
-327,753	-0,052
-308,821	-0,051
-308,427	-0,049
-307,244	-0,049
-287,129	-0,048
-266,225	-0,046
-253,999	-0,044
-252,027	-0,044
-236,645	-0,042
-243,350	-0,042
-243,350	-0,042
-235,856	-0,042
-221,657	-0,041
-216,530	-0,040
-208,642	-0,040
-206,670	-0,039
-177,362	-0,037
-174,539	-0,036
-172,871	-0,035
-167,352	-0,035
-168,122	-0,035
-167,994	-0,035
-165,299	-0,035
-157,213	-0,034
-150,412	-0,033
-136,808	-0,032
-113,322	-0,030
-110,370	-0,029
-112,039	-0,029
-109,087	-0,029
-94,970	-0,028
-89,836	-0,027
-46,658	-0,025
-35,619	-0,021
-31,118	-0,019
-27,634	-0,019
-5,470	-0,018
-2,260	-0,015
-1,618	-0,015
-2,992	-0,015
-1,040	-0,015
-0,334	-0,015
-2,042	-0,015
-1,130	-0,015
-1,245	-0,015
0,552	-0,015
-1,181	-0,015
-0,360	-0,015
-0,167	-0,015
-1,721	-0,015
-0,090	-0,015
-0,603	-0,014
0,693	-0,015
1,733	-0,015
1,656	-0,015
1,284	-0,015
1,785	-0,015
2,440	-0,015
0,411	-0,015
1,515	-0,014
1,772	-0,015
1,554	-0,015
1,772	-0,015
0,411	-0,015
0,167	-0,014
7,434	-0,014
46,501	-0,013
51,159	-0,009
70,417	-0,008
86,499	-0,005
88,938	-0,003
90,863	-0,003
90,735	-0,002
92,403	-0,003
100,745	-0,002
104,595	-0,001
107,803	0,000
108,830	0,000
110,755	0,000
115,247	0,001
119,996	0,001
134,626	0,003
143,866	0,005
151,182	0,006
158,625	0,007
161,064	0,008
162,860	0,008
163,374	0,008
164,400	0,008
169,662	0,009
172,871	0,010
176,207	0,011
175,822	0,011
176,977	0,011
178,902	0,011
183,009	0,011
183,779	0,012
204,057	0,013
216,249	0,018
221,382	0,018
220,997	0,019
222,152	0,019
224,976	0,019
231,649	0,019
246,151	0,021
300,144	0,024
316,709	0,032
288,706	0,033
302,905	0,035
307,638	0,035
314,737	0,035
307,244	0,036
313,160	0,037
318,681	0,038
329,725	0,039
336,824	0,040
349,445	0,041
351,417	0,042
344,318	0,042
366,405	0,045
365,616	0,047
386,125	0,049
386,914	0,050
409,395	0,053
425,172	0,057
406,634	0,058
413,339	0,058
420,044	0,058
419,650	0,058
418,861	0,058
418,861	0,059
426,749	0,059
422,411	0,059
442,525	0,061
421,227	0,061
425,172	0,061
449,230	0,064
456,724	0,068
477,628	0,071
482,755	0,072
473,289	0,073
466,190	0,072
483,544	0,074
498,926	0,074
501,292	0,078
517,857	0,081
526,929	0,082
539,944	0,083
547,044	0,085
545,860	0,086
558,087	0,089
568,736	0,092
575,047	0,096
584,118	0,098
590,428	0,099
588,456	0,100
591,612	0,098
582,146	0,099
590,034	0,100
579,385	0,100
581,751	0,098
581,751	0,099
579,385	0,099
568,736	0,099
588,456	0,099
560,059	0,099
557,693	0,098
544,283	0,093
522,985	0,095
527,718	0,095
531,267	0,096
532,056	0,095
524,957	0,095
499,715	0,094
490,643	0,092
492,615	0,092
492,615	0,092
494,193	0,093
485,910	0,093
483,544	0,092
466,979	0,093
448,442	0,090
462,246	0,090
448,047	0,090
441,737	0,090
436,215	0,090
425,960	0,089
429,510	0,088
429,116	0,089
387,703	0,085
375,476	0,084
370,349	0,084
359,305	0,083
367,588	0,081
370,743	0,083
369,166	0,083
343,529	0,083
332,091	0,080
317,498	0,077
317,893	0,076
302,116	0,076
307,244	0,078
305,272	0,078
302,511	0,078
309,610	0,077
295,017	0,075
282,001	0,075
288,312	0,075
269,775	0,075
271,747	0,073
261,098	0,074
246,505	0,072
245,716	0,072
242,955	0,071
244,138	0,070
244,927	0,071
239,800	0,071
235,067	0,069
214,163	0,070
221,657	0,068
207,064	0,067
188,656	0,065
186,218	0,065
184,549	0,065
170,946	0,064
160,807	0,062
153,363	0,061
141,941	0,061
111,012	0,058
100,617	0,056
96,895	0,055
93,943	0,056
93,686	0,053
83,676	0,053
64,425	0,050
31,510	0,048
9,476	0,044
6,985	0,042
5,508	0,044
2,119	0,041
3,030	0,041
2,452	0,040
2,517	0,041
1,258	0,041
1,104	0,041
1,220	0,041
1,515	0,041
0,603	0,041
-0,591	0,041
-1,297	0,042
-1,502	0,040
-2,992	0,041
0,013	0,041
-1,990	0,041
-2,003	0,040
-5,611	0,040
-70,971	0,037
-75,976	0,030
-83,034	0,029
-84,831	0,028
-88,681	0,028
-90,350	0,028
-91,376	0,028
-92,531	0,027
-98,820	0,027
-107,932	0,025
-128,466	0,023
-140,401	0,020
-148,615	0,018
-151,695	0,018
-151,823	0,017
-155,673	0,017
-163,502	0,016
-167,224	0,015
-171,459	0,014
-174,154	0,013
-177,747	0,013
-188,143	0,011
-197,768	0,010
-208,548	0,008
-213,810	0,006
-218,174	0,005
-222,024	0,005
-224,591	0,004
-225,104	0,004
-227,927	0,004
-231,777	0,003
-239,606	0,002
-253,852	0,000
-261,038	-0,002
-271,353	-0,003
-314,343	-0,008
-307,638	-0,012
-333,275	-0,014
-328,147	-0,015
-330,908	-0,016
-338,007	-0,018
-348,656	-0,019
-368,771	-0,021
-377,448	-0,023
-386,520	-0,024
-409,001	-0,028
-412,945	-0,032
-412,550	-0,033
-425,960	-0,033
-438,187	-0,034
-422,805	-0,035
-429,510	-0,036
-426,749	-0,037
-453,963	-0,038
-450,414	-0,039
-461,851	-0,041
-473,684	-0,043
-505,631	-0,047
-506,419	-0,049
-509,180	-0,050
-525,745	-0,053
-519,829	-0,053
-549,804	-0,055
-562,425	-0,058
-561,637	-0,059
-563,214	-0,061
-576,624	-0,064
-605,810	-0,067
-623,164	-0,071
-627,897	-0,074
-638,941	-0,079
-652,350	-0,081
-667,338	-0,082
-656,689	-0,083
-658,661	-0,083
-671,676	-0,084
-711,512	-0,090
-738,331	-0,097
-742,670	-0,099
-733,993	-0,099
-735,176	-0,099
-762,785	-0,101
-741,092	-0,103
-759,235	-0,104
-769,490	-0,107
-792,759	-0,111
-796,704	-0,114
-825,402	-0,118
-837,027	-0,122
-847,361	-0,122
-820,235	-0,125
-849,944	-0,126
-852,528	-0,126
-882,237	-0,128
-887,404	-0,131
-866,736	-0,131
-904,196	-0,134
-930,030	-0,139
-911,946	-0,143
-937,780	-0,141
-939,072	-0,145
-931,322	-0,144
-944,239	-0,147
-959,739	-0,150
-970,073	-0,153
-1003,657	-0,158
-999,782	-0,160
-1012,699	-0,161
-1021,741	-0,159
-1023,033	-0,165
-1051,451	-0,167
-1047,575	-0,169
-1052,742	-0,169
-1063,076	-0,168
-1060,493	-0,171
-1072,118	-0,173
-1101,827	-0,176
-1082,452	-0,178
-1099,244	-0,177
-1106,994	-0,178
-1122,494	-0,183
-1122,494	-0,184
-1137,995	-0,187
-1145,745	-0,187
-1136,703	-0,187
-1148,329	-0,185
-1150,912	-0,188
-1134,120	-0,189
-1131,536	-0,188
-1144,453	-0,189
-1139,287	-0,188
-1139,287	-0,187
-1145,745	-0,192
-1150,912	-0,194
-1156,079	-0,194
-1163,829	-0,193
-1158,662	-0,195
-1172,871	-0,194
-1153,495	-0,192
-1157,371	-0,190
-1154,787	-0,197
-1156,079	-0,195
-1157,371	-0,194
-1139,287	-0,194
-1159,954	-0,190
-1153,495	-0,195
-1139,287	-0,194
-1113,453	-0,192
-1100,536	-0,192
-1114,744	-0,192
-1103,119	-0,187
-1108,286	-0,191
-1112,161	-0,191
-1095,369	-0,191
-1078,576	-0,186
-1070,826	-0,186
-1060,493	-0,187
-1050,159	-0,187
-1037,242	-0,186
-1048,867	-0,186
-1051,451	-0,186
-1042,409	-0,190
-1023,033	-0,189
-1021,741	-0,189
-998,490	-0,188
-981,698	-0,184
-984,282	-0,183
-972,656	-0,182
-961,031	-0,184
-967,490	-0,182
-951,989	-0,182
-954,572	-0,181
-927,447	-0,181
-930,030	-0,180
-902,904	-0,178
-918,405	-0,178
-892,570	-0,178
-901,612	-0,176
-866,736	-0,177
-848,652	-0,176
-855,111	-0,173
-840,902	-0,174
-821,526	-0,175
-818,943	-0,174
-820,235	-0,173
-798,276	-0,171
-811,193	-0,170
-803,443	-0,169
-782,775	-0,169
-765,983	-0,167
-772,442	-0,169
-768,566	-0,169
-725,940	-0,168
-706,564	-0,165
-722,065	-0,164
-702,689	-0,165
-693,647	-0,165
-714,315	-0,162
-711,731	-0,163
-707,856	-0,163
-618,826	-0,160
-596,739	-0,155
-583,723	-0,152
-575,047	-0,150
-549,804	-0,148
-530,478	-0,145
-535,211	-0,147
-502,475	-0,146
-495,376	-0,141
-476,050	-0,141
-497,348	-0,141
-488,277	-0,140
-470,134	-0,142
-449,625	-0,137
-436,609	-0,136
-412,945	-0,133
-412,550	-0,131
-384,548	-0,132
-380,209	-0,130
-384,548	-0,130
-354,178	-0,128
-350,628	-0,125
-350,234	-0,125
-334,063	-0,123
-322,626	-0,122
-317,498	-0,122
-311,977	-0,120
-309,216	-0,119
-295,806	-0,118
-298,961	-0,117
-263,070	-0,116
-240,983	-0,113
-240,983	-0,113
-246,110	-0,111
-237,039	-0,110
-233,489	-0,109
-216,530	-0,107
-192,763	-0,105
-181,469	-0,102
-169,662	-0,099
-160,165	-0,098
-156,572	-0,097
-151,182	-0,097
-142,711	-0,096
-129,749	-0,095
-116,017	-0,091
-109,985	-0,090
-95,355	-0,090
-90,093	-0,088
-82,778	-0,085
-44,505	-0,082
-21,724	-0,076
-3,852	-0,073
-1,772	-0,071
-1,425	-0,070
-2,427	-0,070
-2,196	-0,069
-2,042	-0,068
2,286	-0,068
1,798	-0,068
0,565	-0,069
1,181	-0,068
0,758	-0,067
1,079	-0,067
2,196	-0,067
0,360	-0,067
1,746	-0,067
0,603	-0,067
2,440	-0,067
1,477	-0,067
2,106	-0,067
0,950	-0,068
1,554	-0,068
1,284	-0,067
2,234	-0,067
3,968	-0,067
4,699	-0,067
20,095	-0,067
64,939	-0,062
70,329	-0,054
73,537	-0,053
76,232	-0,052
78,029	-0,052
79,184	-0,051
82,264	-0,051
85,601	-0,050
94,071	-0,049
95,611	-0,050
101,387	-0,049
112,167	-0,048
127,567	-0,045
138,219	-0,041
144,251	-0,039
150,155	-0,038
156,315	-0,036
162,475	-0,035
164,529	-0,033
165,427	-0,033
166,710	-0,032
171,716	-0,031
174,282	-0,031
183,523	-0,031
189,683	-0,028
201,105	-0,026
209,447	-0,023
214,195	-0,022
218,430	-0,020
225,104	-0,019
227,414	-0,018
230,494	-0,018
232,804	-0,016
236,398	-0,016
243,585	-0,015
256,162	-0,012
281,607	-0,010
287,918	-0,001
298,172	0,005
327,753	0,005
302,511	0,006
326,964	0,007
329,330	0,008
354,573	0,011
363,644	0,014
362,066	0,018
369,166	0,020
372,715	0,021
386,520	0,024
427,538	0,031
427,538	0,037
430,693	0,038
435,032	0,039
430,299	0,040
438,187	0,040
450,019	0,046
475,656	0,049
492,221	0,052
503,264	0,056
492,221	0,058
507,997	0,062
530,873	0,065
543,099	0,068
568,342	0,074
562,820	0,078
567,947	0,079
579,779	0,080
601,077	0,084
613,698	0,087
617,642	0,093
648,406	0,098
641,701	0,099
651,956	0,100
667,338	0,104
663,394	0,105
683,509	0,107
682,325	0,110
711,117	0,113
721,766	0,118
751,347	0,122
730,049	0,125
765,940	0,126
778,166	0,129
781,716	0,133
844,777	0,140
847,361	0,149
865,445	0,151
858,986	0,153
875,778	0,156
888,695	0,160
902,904	0,162
914,529	0,165
888,695	0,165
904,196	0,164
927,447	0,166
936,488	0,168
931,322	0,172
964,906	0,176
957,156	0,178
976,531	0,179
985,573	0,182
986,865	0,184
998,490	0,186
1006,241	0,189
1032,075	0,192
1042,409	0,194
1041,117	0,195
1030,783	0,196
1024,325	0,197
1046,284	0,200
1078,576	0,201
1085,035	0,202
1088,910	0,207
1099,244	0,209
1095,369	0,210
1121,203	0,211
1122,494	0,212
1118,619	0,213
1114,744	0,213
1135,411	0,213
1128,953	0,216
1147,037	0,217
1135,411	0,218
1128,953	0,218
1143,162	0,219
1152,204	0,220
1154,787	0,222
1162,537	0,221
1161,246	0,221
1181,913	0,222
1154,787	0,223
1172,871	0,224
1167,704	0,224
1171,579	0,224
1172,871	0,223
1170,288	0,223
1167,704	0,223
1163,829	0,223
1167,704	0,224
1175,454	0,223
1165,121	0,223
1180,621	0,224
1178,038	0,223
1181,913	0,224
1162,537	0,223
1159,954	0,223
1154,787	0,223
1139,287	0,222
1106,994	0,221
1127,661	0,221
1112,161	0,221
1061,784	0,219
1041,117	0,217
1054,034	0,217
1056,617	0,217
1028,200	0,216
997,199	0,215
1019,158	0,215
1011,408	0,214
1008,824	0,214
958,448	0,211
936,488	0,209
948,114	0,209
917,113	0,209
909,363	0,207
910,654	0,207
886,112	0,207
895,154	0,205
873,195	0,204
858,986	0,203
847,361	0,202
822,818	0,201
817,651	0,200
780,192	0,199
777,608	0,198
784,067	0,195
759,524	0,194
728,523	0,193
724,648	0,192
715,606	0,191
718,190	0,190
684,605	0,188
676,855	0,188
670,397	0,187
670,888	0,186
662,605	0,185
646,829	0,184
639,729	0,183
621,981	0,181
597,133	0,179
571,102	0,178
569,130	0,176
560,453	0,175
550,593	0,175
536,789	0,172
543,494	0,171
517,069	0,171
503,264	0,168
493,798	0,167
489,460	0,166
487,882	0,166
450,019	0,165
422,411	0,161
408,212	0,158
397,563	0,157
338,796	0,152
332,091	0,148
321,442	0,146
313,949	0,145
287,918	0,142
262,676	0,138
276,480	0,137
255,971	0,135
240,983	0,133
228,362	0,132
229,151	0,132
237,433	0,131
212,191	0,131
216,135	0,130
200,359	0,128
203,120	0,126
169,277	0,123
149,128	0,118
122,562	0,115
99,333	0,110
78,543	0,106
73,409	0,102
68,276	0,101
10,336	0,099
3,364	0,088
1,554	0,087
1,798	0,087
1,605	0,087
2,054	0,086
2,388	0,087
1,297	0,087
1,425	0,086
0,193	0,086
-0,912	0,086
-0,732	0,086
-1,605	0,086
-0,193	0,085
-1,759	0,086
-1,541	0,085
-0,668	0,085
-0,937	0,086
-1,104	0,085
-3,428	0,085
-4,045	0,085
-9,360	0,085
-80,596	0,083
-86,243	0,067
-88,168	0,066
-90,478	0,065
-119,996	0,065
-144,893	0,055
-152,337	0,051
-153,877	0,049
-154,005	0,049
-155,032	0,048
-155,930	0,048
-157,470	0,048
-162,604	0,047
-174,282	0,046
-184,934	0,043
-191,479	0,040
-207,008	0,038
-219,072	0,035
-235,114	0,030
-239,221	0,027
-241,274	0,026
-246,536	0,025
-297,778	0,023
-300,144	0,010
-311,188	0,008
-313,160	0,005
-319,865	0,004
-344,712	0,003
-359,305	-0,003
-351,417	-0,006
-347,079	-0,007
-374,687	-0,008
-374,687	-0,012
-406,240	-0,016
-430,693	-0,021
-444,103	-0,025
-457,119	-0,030
-470,528	-0,035
-473,289	-0,037
-486,699	-0,038
-509,969	-0,042
-519,041	-0,047
-528,901	-0,052
-522,196	-0,053
-537,183	-0,054
-549,804	-0,054
-568,342	-0,061
-604,627	-0,068
-584,118	-0,071
-587,668	-0,072
-593,584	-0,073
-624,742	-0,074
-634,996	-0,080
-652,745	-0,085
-655,900	-0,088
-670,493	-0,089
-679,959	-0,090
-707,962	-0,096
-793,548	-0,107
-835,735	-0,124
-842,194	-0,132
-833,152	-0,132
-839,610	-0,132
-846,069	-0,132
-840,902	-0,132
-856,403	-0,132
-848,652	-0,133
-869,320	-0,135
-909,363	-0,142
-901,612	-0,146
-937,780	-0,149
-951,989	-0,154
-944,239	-0,156
-949,406	-0,157
-949,406	-0,157
-1002,366	-0,161
-992,032	-0,165
-1007,532	-0,166
-1033,367	-0,168
-1035,950	-0,171
-1037,242	-0,173
-1020,450	-0,173
-1073,410	-0,176
-1092,785	-0,182
-1091,494	-0,184
-1116,036	-0,185
-1104,411	-0,186
-1137,995	-0,192
-1139,287	-0,195
-1137,995	-0,196
-1157,371	-0,199
-1180,621	-0,201
-1167,704	-0,202
-1193,538	-0,203
-1207,747	-0,204
-1224,539	-0,205
-1212,914	-0,208
-1214,206	-0,210
-1247,790	-0,212
-1252,957	-0,216
-1285,250	-0,220
-1334,335	-0,227
-1327,876	-0,235
-1353,710	-0,238
-1348,543	-0,239
-1370,503	-0,242
-1393,753	-0,245
-1384,711	-0,248
-1433,796	-0,252
-1438,963	-0,255
-1459,630	-0,260
-1486,756	-0,266
-1516,465	-0,271
-1531,966	-0,274
-1572,009	-0,278
-1559,092	-0,280
-1551,342	-0,280
-1559,092	-0,282
-1579,759	-0,284
-1590,093	-0,284
-1582,343	-0,285
-1623,677	-0,291
-1644,345	-0,296
-1665,012	-0,295
-1674,054	-0,302
-1680,512	-0,304
-1701,180	-0,306
-1701,180	-0,309
-1719,264	-0,311
-1730,889	-0,313
-1748,973	-0,314
-1714,097	-0,315
-1746,390	-0,315
-1758,015	-0,318
-1770,932	-0,320
-1787,724	-0,322
-1773,516	-0,323
-1800,641	-0,323
-1812,267	-0,325
-1783,849	-0,326
-1830,351	-0,327
-1798,058	-0,327
-1801,933	-0,327
-1800,641	-0,327
-1799,350	-0,327
-1807,100	-0,327
-1792,891	-0,327
-1798,058	-0,326
-1785,141	-0,326
-1764,474	-0,325
-1760,598	-0,324
-1756,723	-0,324
-1734,764	-0,323
-1715,389	-0,323
-1728,306	-0,323
-1710,222	-0,322
-1688,263	-0,322
-1685,679	-0,321
-1662,429	-0,321
-1646,928	-0,320
-1624,969	-0,319
-1622,386	-0,318
-1617,219	-0,316
-1623,677	-0,316
-1593,968	-0,315
-1604,302	-0,315
-1592,676	-0,315
-1574,592	-0,314
-1573,301	-0,314
-1546,175	-0,313
-1548,758	-0,313
-1529,383	-0,312
-1522,924	-0,311
-1510,007	-0,311
-1510,007	-0,311
-1482,881	-0,310
-1471,256	-0,309
-1469,964	-0,307
-1458,339	-0,307
-1453,172	-0,307
-1464,797	-0,307
-1467,380	-0,307
-1468,672	-0,307
-1464,797	-0,307
-1462,214	-0,307
-1460,922	-0,307
-1459,630	-0,307
-1476,422	-0,306
-1428,629	-0,306
-1418,296	-0,305
-1422,171	-0,304
-1392,462	-0,303
-1380,836	-0,303
-1397,628	-0,302
-1364,044	-0,302
-1358,877	-0,300
-1358,877	-0,300
-1344,668	-0,299
-1313,667	-0,298
-1317,542	-0,298
-1324,001	-0,297
-1287,833	-0,296
-1298,167	-0,295
-1286,542	-0,295
-1290,417	-0,294
-1277,500	-0,294
-1265,874	-0,293
-1233,581	-0,292
-1242,623	-0,291
-1236,165	-0,291
-1212,914	-0,290
-1193,538	-0,288
-1181,913	-0,287
-1165,121	-0,285
-1149,620	-0,285
-1143,162	-0,285
-1139,287	-0,284
-1119,911	-0,283
-1131,536	-0,282
-1112,161	-0,281
-1097,952	-0,280
-1066,951	-0,279
-1064,368	-0,276
-1057,909	-0,276
-1046,284	-0,276
-1047,575	-0,274
-1008,824	-0,272
-998,490	-0,271
-973,948	-0,270
-986,865	-0,268
-940,364	-0,267
-946,822	-0,265
-951,989	-0,265
-901,612	-0,264
-892,570	-0,262
-904,196	-0,261
-860,278	-0,259
-857,694	-0,256
-864,153	-0,256
-843,486	-0,256
-830,568	-0,256
-827,985	-0,255
-812,484	-0,253
-804,734	-0,252
-811,193	-0,251
-786,650	-0,250
-765,983	-0,247
-738,857	-0,244
-720,773	-0,241
-702,689	-0,240
-727,232	-0,239
-710,440	-0,239
-697,522	-0,239
-688,481	-0,239
-670,397	-0,234
-649,729	-0,229
-612,910	-0,229
-598,317	-0,226
-609,360	-0,225
-603,838	-0,225
-590,428	-0,225
-558,876	-0,225
-534,422	-0,218
-530,084	-0,215
-515,491	-0,214
-521,013	-0,213
-527,323	-0,213
-505,236	-0,213
-523,773	-0,213
-505,631	-0,213
-499,320	-0,211
-451,991	-0,207
-452,386	-0,203
-435,032	-0,202
-432,271	-0,201
-413,339	-0,199
-367,588	-0,195
-338,402	-0,187
-330,514	-0,184
-325,386	-0,183
-334,063	-0,183
-305,272	-0,183
-300,539	-0,179
-283,974	-0,177
-272,536	-0,174
-273,719	-0,170
-230,334	-0,168
-206,275	-0,165
-157,085	-0,159
-133,728	-0,148
-102,028	-0,141
-89,708	-0,135
-85,858	-0,133
-78,928	-0,133
-44,544	-0,129
-36,520	-0,122
-23,720	-0,121
-6,882	-0,116
-3,172	-0,113
-2,607	-0,113
-2,170	-0,112
-3,377	-0,112
-1,297	-0,112
-1,836	-0,112
-1,438	-0,111
-1,695	-0,112
-3,403	-0,111
0,218	-0,111
1,849	-0,111
0,398	-0,111
0,989	-0,111
1,965	-0,111
0,770	-0,111
1,027	-0,111
1,220	-0,111
1,361	-0,111
1,990	-0,111
2,016	-0,111
1,875	-0,111
0,796	-0,111
1,233	-0,111
2,388	-0,111
0,334	-0,111
-0,154	-0,111
0,976	-0,111
2,658	-0,111
3,030	-0,111
17,244	-0,110
84,959	-0,105
90,221	-0,089
97,921	-0,088
127,696	-0,084
151,567	-0,075
162,347	-0,069
167,480	-0,065
185,063	-0,065
211,885	-0,057
225,104	-0,051
239,221	-0,048
255,648	-0,042
278,846	-0,039
300,933	-0,029
318,681	-0,022
324,203	-0,019
353,389	-0,015
375,082	-0,008
400,718	-0,002
410,184	0,006
416,889	0,011
446,864	0,014
466,190	0,023
488,277	0,031
509,969	0,035
534,422	0,038
605,810	0,058
646,040	0,073
639,729	0,078
647,223	0,080
663,394	0,081
668,521	0,083
668,127	0,084
723,738	0,090
732,415	0,101
743,064	0,107
762,785	0,111
766,334	0,114
806,958	0,118
833,152	0,127
870,611	0,136
886,112	0,139
888,695	0,142
882,237	0,144
900,321	0,147
911,946	0,150
927,447	0,153
919,696	0,156
953,281	0,158
984,282	0,165
1010,116	0,170
1019,158	0,176
1010,116	0,179
1033,367	0,182
1041,117	0,184
1043,700	0,186
1087,618	0,188
1097,952	0,195
1090,202	0,198
1109,578	0,201
1127,661	0,204
1135,411	0,205
1150,912	0,207
1156,079	0,208
1176,746	0,210
1176,746	0,211
1175,454	0,211
1172,871	0,213
1184,497	0,216
1184,497	0,217
1193,538	0,219
1201,289	0,221
1214,206	0,222
1265,874	0,225
1240,040	0,230
1274,916	0,233
1276,208	0,234
1300,750	0,239
1318,834	0,243
1338,210	0,244
1339,501	0,245
1326,584	0,246
1340,793	0,246
1331,751	0,248
1357,585	0,251
1380,836	0,254
1386,003	0,257
1380,836	0,261
1404,087	0,262
1428,629	0,263
1427,338	0,265
1438,963	0,267
1453,172	0,269
1463,505	0,271
1489,340	0,274
1507,424	0,278
1500,965	0,280
1515,174	0,281
1528,091	0,283
1529,383	0,284
1521,632	0,284
1542,300	0,285
1528,091	0,285
1548,758	0,286
1565,550	0,288
1575,884	0,290
1593,968	0,291
1593,968	0,294
1613,344	0,295
1606,885	0,296
1618,511	0,298
1615,927	0,299
1635,303	0,301
1653,386	0,302
1632,719	0,303
1649,511	0,303
1639,178	0,303
1659,845	0,303
1666,304	0,304
1674,054	0,306
1670,179	0,306
1674,054	0,307
1671,470	0,307
1686,971	0,309
1697,305	0,312
1716,680	0,314
1719,264	0,316
1739,931	0,318
1754,140	0,319
1787,724	0,323
1787,724	0,325
1795,475	0,327
1789,016	0,328
1795,475	0,330
1798,058	0,330
1807,100	0,330
1804,516	0,330
1816,142	0,330
1820,017	0,331
1825,184	0,332
1835,518	0,332
1834,226	0,333
1826,475	0,334
1852,310	0,336
1861,352	0,338
1854,893	0,338
1841,976	0,337
1796,766	0,336
1812,267	0,335
1808,392	0,335
1808,392	0,334
1777,391	0,335
1805,808	0,335
1783,849	0,335
1791,599	0,334
1787,724	0,334
1791,599	0,334
1754,140	0,333
1758,015	0,332
1758,015	0,332
1761,890	0,332
1741,223	0,332
1769,640	0,332
1732,181	0,332
1727,014	0,331
1701,180	0,331
1705,055	0,331
1705,055	0,330
1685,679	0,329
1684,388	0,329
1675,346	0,328
1648,220	0,328
1626,261	0,327
1632,719	0,326
1606,885	0,325
1617,219	0,324
1600,427	0,323
1577,176	0,323
1582,343	0,322
1584,926	0,322
1587,510	0,322
1577,176	0,322
1564,259	0,321
1548,758	0,321
1552,633	0,320
1539,716	0,320
1538,425	0,320
1521,632	0,319
1507,424	0,319
1491,923	0,319
1521,632	0,318
1493,215	0,318
1476,422	0,317
1473,839	0,316
1471,256	0,316
1450,589	0,315
1427,338	0,314
1442,838	0,314
1429,921	0,314
1407,962	0,312
1392,462	0,312
1398,920	0,311
1380,836	0,311
1373,086	0,310
1352,418	0,308
1324,001	0,307
1324,001	0,305
1269,749	0,303
1285,250	0,302
1254,249	0,301
1252,957	0,301
1252,957	0,299
1207,747	0,298
1193,538	0,297
1193,538	0,296
1170,288	0,295
1179,330	0,294
1150,912	0,294
1137,995	0,291
1105,702	0,290
1100,536	0,288
1123,786	0,288
1096,660	0,287
1096,660	0,286
1072,118	0,286
1061,784	0,285
1052,742	0,283
1032,075	0,282
1044,992	0,281
1029,491	0,281
1017,866	0,280
1012,699	0,279
1001,074	0,279
962,323	0,277
967,490	0,275
961,031	0,274
950,697	0,274
946,822	0,273
933,905	0,271
904,196	0,270
908,071	0,270
915,821	0,270
915,821	0,270
911,946	0,269
888,695	0,268
856,403	0,264
829,277	0,262
811,193	0,261
802,151	0,258
800,859	0,256
782,775	0,256
776,317	0,254
750,483	0,253
754,358	0,252
745,316	0,251
736,274	0,251
705,273	0,249
700,106	0,247
697,522	0,246
687,189	0,245
678,147	0,242
652,313	0,239
658,771	0,237
644,462	0,237
611,332	0,233
590,034	0,231
559,665	0,228
539,155	0,225
513,519	0,222
532,056	0,219
526,929	0,218
507,208	0,218
482,755	0,215
475,261	0,213
457,119	0,210
442,920	0,208
445,286	0,208
428,721	0,206
409,001	0,201
401,901	0,199
394,408	0,198
377,448	0,198
371,532	0,195
357,333	0,194
361,277	0,193
344,712	0,192
324,598	0,189
312,765	0,187
296,200	0,183
294,623	0,181
250,843	0,178
223,235	0,174
202,331	0,169
189,298	0,163
184,164	0,159
181,084	0,159
178,132	0,158
160,807	0,157
139,631	0,152
124,102	0,148
114,092	0,145
105,622	0,143
93,815	0,140
79,569	0,138
52,607	0,133
33,741	0,126
9,283	0,121
4,661	0,116
2,542	0,115
2,722	0,115
1,387	0,115
0,347	0,115
0,668	0,115
1,926	0,114
1,143	0,115
0,218	0,114
0,411	0,114
1,207	0,114
0,668	0,114
-0,180	0,114
1,066	0,114
0,578	0,114
2,029	0,114
0,051	0,114
-0,360	0,114
0,360	0,113
-2,170	0,113
-1,656	0,113
-1,656	0,114
-1,566	0,113
-1,977	0,113
0,282	0,113
-3,043	0,113
-1,695	0,113
-0,822	0,113
-0,989	0,113
-2,851	0,113
-2,388	0,113
-2,286	0,113
-4,173	0,113
-77,773	0,111
-84,318	0,092
-85,986	0,090
-89,066	0,090
-93,430	0,090
-112,167	0,087
-137,578	0,080
-147,075	0,074
-152,978	0,072
-152,465	0,071
-168,892	0,070
-176,977	0,066
-184,293	0,063
-207,907	0,060
-220,612	0,054
-224,077	0,050
-228,441	0,049
-255,905	0,047
-314,737	0,038
-315,526	0,027
-342,740	0,019
-346,290	0,016
-346,290	0,015
-351,417	0,014
-383,364	0,012
-422,016	-0,002
-413,734	-0,008
-432,665	-0,011
-493,404	-0,017
-513,913	-0,031
-522,590	-0,036
-515,491	-0,038
-547,044	-0,039
-544,677	-0,043
-562,820	-0,048
-592,795	-0,053
-628,292	-0,060
-646,040	-0,072
-654,322	-0,078
-670,493	-0,081
-705,201	-0,088
-730,837	-0,095
-732,021	-0,099
-740,303	-0,101
-743,853	-0,102
-798,676	-0,109
-804,986	-0,116
-829,277	-0,121
-840,902	-0,130
-851,236	-0,131
-851,236	-0,131
-837,027	-0,132
-891,279	-0,134
-884,820	-0,141
-922,280	-0,145
-954,572	-0,150
-973,948	-0,158
-973,948	-0,163
-966,198	-0,165
-988,157	-0,166
-966,198	-0,166
-970,073	-0,166
-979,115	-0,166
-973,948	-0,167
-1004,949	-0,167
-1054,034	-0,177
-1074,701	-0,187
-1094,077	-0,190
-1106,994	-0,192
-1145,745	-0,195
-1148,329	-0,201
-1161,246	-0,207
-1193,538	-0,211
-1215,498	-0,216
-1202,580	-0,219
-1232,290	-0,221
-1245,207	-0,221
-1272,333	-0,225
-1271,041	-0,228
-1295,583	-0,233
-1311,084	-0,238
-1330,459	-0,242
-1334,335	-0,243
-1348,543	-0,243
-1338,210	-0,243
-1316,251	-0,243
-1321,418	-0,243
-1318,834	-0,244
-1361,461	-0,246
-1360,169	-0,250
-1388,586	-0,252
-1375,669	-0,253
-1405,379	-0,255
-1398,920	-0,258
-1414,421	-0,259
-1445,422	-0,261
-1448,005	-0,263
-1471,256	-0,267
-1469,964	-0,269
-1485,465	-0,272
-1481,589	-0,273
-1490,631	-0,274
-1499,673	-0,275
-1521,632	-0,276
-1528,091	-0,277
-1548,758	-0,279
-1551,342	-0,283
-1570,717	-0,286
-1579,759	-0,287
-1564,259	-0,288
-1578,468	-0,288
-1573,301	-0,288
-1587,510	-0,288
-1564,259	-0,288
-1566,842	-0,289
-1568,134	-0,288
-1582,343	-0,289
-1588,801	-0,289
-1621,094	-0,292
-1622,386	-0,294
-1627,552	-0,296
-1635,303	-0,297
-1663,720	-0,300
-1679,221	-0,303
-1675,346	-0,306
-1702,472	-0,307
-1708,930	-0,310
-1748,973	-0,313
-1774,807	-0,316
-1790,308	-0,321
-1789,016	-0,322
-1809,683	-0,323
-1810,975	-0,324
-1817,434	-0,325
-1807,100	-0,327
-1822,600	-0,328
-1875,560	-0,331
-1866,518	-0,337
-1858,768	-0,338
-1874,269	-0,338
-1863,935	-0,338
-1932,396	-0,340
-1942,729	-0,348
-1962,105	-0,350
-1998,273	-0,352
-2002,148	-0,355
-1998,273	-0,357
-1977,605	-0,357
-2034,440	-0,357
-2024,107	-0,357
-2056,399	-0,357
-2087,401	-0,365
-2091,276	-0,367
-2099,026	-0,368
-2137,777	-0,371
-2145,527	-0,375
-2157,153	-0,376
-2155,861	-0,376
-2148,111	-0,376
-2172,653	-0,378
-2171,362	-0,380
-2189,446	-0,381
-2202,363	-0,381
-2190,737	-0,382
-2210,113	-0,383
-2206,238	-0,383
-2235,947	-0,385
-2230,780	-0,388
-2261,781	-0,389
-2283,740	-0,391
-2301,824	-0,393
-2303,116	-0,394
-2321,200	-0,397
-2343,159	-0,398
-2341,867	-0,399
-2341,867	-0,400
-2356,076	-0,402
-2403,869	-0,405
-2384,494	-0,406
-2406,453	-0,407
-2424,537	-0,408
-2447,787	-0,410
-2469,746	-0,413
-2447,787	-0,414
-2458,121	-0,414
-2454,246	-0,414
-2442,620	-0,414
-2468,455	-0,414
-2451,662	-0,414
-2459,413	-0,414
-2502,039	-0,416
-2495,580	-0,418
-2503,331	-0,417
-2491,705	-0,419
-2489,122	-0,419
-2490,413	-0,418
-2492,997	-0,418
-2482,663	-0,418
-2489,122	-0,418
-2498,164	-0,418
-2483,955	-0,418
-2482,663	-0,418
-2480,080	-0,418
-2486,539	-0,417
-2473,621	-0,418
-2478,788	-0,418
-2471,038	-0,418
-2478,788	-0,418
-2473,621	-0,418
-2472,330	-0,418
-2441,329	-0,417
-2442,620	-0,416
-2436,162	-0,416
-2436,162	-0,416
-2428,412	-0,416
-2420,661	-0,416
-2403,869	-0,415
-2410,328	-0,415
-2389,660	-0,415
-2396,119	-0,415
-2388,369	-0,414
-2343,159	-0,413
-2345,742	-0,413
-2347,034	-0,410
-2331,533	-0,411
-2330,242	-0,411
-2326,367	-0,411
-2326,367	-0,410
-2303,116	-0,410
-2281,157	-0,409
-2278,573	-0,409
-2292,782	-0,409
-2269,531	-0,409
-2287,615	-0,409
-2277,282	-0,409
-2277,282	-0,408
-2286,324	-0,408
-2278,573	-0,408
-2217,863	-0,407
-2201,071	-0,405
-2211,405	-0,405
-2207,530	-0,405
-2190,737	-0,405
-2197,196	-0,405
-2167,487	-0,405
-2135,194	-0,402
-2126,152	-0,400
-2092,568	-0,400
-2108,068	-0,400
-2087,401	-0,400
-2048,649	-0,397
-2035,732	-0,396
-2012,482	-0,394
-1989,231	-0,393
-1973,730	-0,392
-1989,231	-0,392
-1981,481	-0,391
-1973,730	-0,392
-1915,603	-0,390
-1918,187	-0,388
-1923,354	-0,389
-1883,311	-0,388
-1861,352	-0,385
-1861,352	-0,384
-1845,851	-0,384
-1822,600	-0,383
-1809,683	-0,382
-1812,267	-0,382
-1792,891	-0,381
-1760,598	-0,379
-1730,889	-0,377
-1717,972	-0,376
-1721,847	-0,375
-1698,596	-0,375
-1683,096	-0,374
-1671,470	-0,373
-1685,679	-0,372
-1671,470	-0,372
-1628,844	-0,371
-1622,386	-0,370
-1628,844	-0,368
-1592,676	-0,367
-1609,469	-0,367
-1579,759	-0,366
-1560,384	-0,365
-1574,592	-0,365
-1530,674	-0,363
-1533,258	-0,362
-1520,341	-0,361
-1510,007	-0,361
-1506,132	-0,359
-1482,881	-0,359
-1469,964	-0,358
-1448,005	-0,356
-1411,837	-0,354
-1393,753	-0,351
-1361,461	-0,349
-1362,752	-0,348
-1373,086	-0,348
-1362,752	-0,347
-1340,793	-0,347
-1324,001	-0,344
-1290,417	-0,343
-1251,665	-0,341
-1240,040	-0,336
-1184,497	-0,334
-1163,829	-0,331
-1161,246	-0,330
-1166,413	-0,328
-1128,953	-0,326
-1130,245	-0,325
-1128,953	-0,325
-1057,909	-0,321
-1063,076	-0,319
-1019,158	-0,318
-977,823	-0,311
-967,490	-0,307
-961,031	-0,307
-917,113	-0,305
-895,154	-0,301
-914,529	-0,300
-883,528	-0,299
-848,652	-0,294
-830,568	-0,291
-837,027	-0,290
-811,193	-0,290
-802,151	-0,286
-793,109	-0,286
-728,523	-0,284
-720,773	-0,278
-734,982	-0,277
-711,731	-0,276
-680,730	-0,273
-672,980	-0,269
-667,813	-0,268
-662,646	-0,268
-654,896	-0,268
-648,438	-0,265
-613,698	-0,264
-566,370	-0,258
-563,609	-0,252
-541,127	-0,250
-537,972	-0,247
-520,618	-0,245
-486,699	-0,243
-465,401	-0,238
-450,808	-0,236
-445,286	-0,233
-413,734	-0,230
-411,367	-0,228
-407,423	-0,226
-365,616	-0,221
-346,684	-0,214
-326,175	-0,211
-336,430	-0,210
-341,951	-0,210
-311,977	-0,209
-257,548	-0,200
-247,294	-0,193
-242,561	-0,192
-248,871	-0,191
-235,856	-0,191
-236,645	-0,191
-187,886	-0,183
-181,341	-0,178
-180,442	-0,177
-178,902	-0,176
-178,902	-0,176
-171,459	-0,175
-144,380	-0,172
-127,824	-0,166
-118,199	-0,162
-111,140	-0,160
-100,232	-0,158
-79,954	-0,154
-34,132	-0,150
-8,988	-0,137
-5,136	-0,132
-3,249	-0,131
-2,953	-0,130
-0,796	-0,130
-2,619	-0,130
-2,234	-0,130
-1,913	-0,130
-1,130	-0,130
-2,093	-0,130
-1,412	-0,129
-2,414	-0,129
-1,849	-0,129
0,128	-0,129
-0,039	-0,129
-1,669	-0,129
0,475	-0,129
1,079	-0,128
0,475	-0,128
-0,077	-0,128
1,348	-0,128
2,119	-0,128
1,785	-0,128
0,835	-0,128
1,965	-0,128
2,478	-0,128
0,180	-0,128
0,783	-0,128
1,425	-0,128
1,258	-0,128
0,719	-0,128
2,876	-0,128
2,067	-0,128
0,051	-0,128
1,143	-0,128
2,080	-0,128
2,619	-0,128
1,631	-0,128
1,194	-0,128
2,388	-0,128
2,337	-0,128
3,736	-0,128
3,891	-0,127
2,773	-0,128
2,542	-0,127
2,773	-0,127
87,783	-0,127
103,825	-0,103
147,588	-0,095
162,475	-0,085
189,041	-0,080
215,222	-0,071
225,489	-0,065
231,777	-0,062
248,205	-0,059
307,244	-0,052
315,132	-0,036
321,442	-0,033
317,498	-0,032
321,048	-0,031
336,430	-0,030
406,634	-0,020
426,355	-0,004
432,271	0,002
429,904	0,004
446,470	0,005
450,019	0,006
490,643	0,013
494,587	0,019
492,615	0,021
523,773	0,025
549,804	0,032
560,848	0,040
567,947	0,043
572,680	0,045
582,540	0,045
595,161	0,048
602,655	0,053
628,292	0,061
651,167	0,066
672,465	0,069
717,428	0,078
753,319	0,093
767,517	0,099
769,095	0,101
769,095	0,102
772,645	0,105
784,871	0,107
792,759	0,107
831,860	0,110
846,069	0,120
838,319	0,123
870,611	0,125
873,195	0,131
941,655	0,140
915,821	0,144
932,613	0,145
920,988	0,147
977,823	0,150
1043,700	0,166
1057,909	0,177
1059,201	0,180
1066,951	0,181
1060,493	0,181
1095,369	0,183
1114,744	0,188
1135,411	0,194
1184,497	0,200
1170,288	0,208
1183,205	0,210
1188,372	0,211
1181,913	0,211
1193,538	0,212
1193,538	0,211
1178,038	0,212
1194,830	0,212
1203,872	0,212
1198,705	0,212
1193,538	0,212
1196,122	0,215
1218,081	0,216
1236,165	0,217
1234,873	0,220
1263,291	0,224
1287,833	0,228
1291,708	0,231
1317,542	0,237
1326,584	0,239
1383,420	0,243
1386,003	0,252
1410,546	0,255
1411,837	0,257
1392,462	0,257
1409,254	0,257
1417,004	0,258
1462,214	0,264
1493,215	0,269
1490,631	0,273
1493,215	0,274
1521,632	0,276
1526,799	0,278
1535,841	0,279
1565,550	0,283
1587,510	0,288
1579,759	0,287
1591,385	0,289
1628,844	0,294
1663,720	0,298
1670,179	0,303
1677,929	0,304
1727,014	0,310
1727,014	0,311
1748,973	0,313
1750,265	0,314
1738,639	0,315
1758,015	0,315
1777,391	0,320
1807,100	0,323
1818,725	0,325
1816,142	0,327
1816,142	0,328
1853,601	0,328
1885,894	0,334
1902,686	0,338
1923,354	0,340
1967,272	0,344
1972,439	0,348
1953,063	0,349
2003,440	0,351
2018,940	0,356
2040,899	0,359
2043,482	0,362
2079,650	0,363
2048,649	0,363
2055,108	0,363
2052,524	0,362
2055,108	0,363
2068,025	0,364
2093,859	0,366
2100,318	0,368
2122,277	0,369
2167,487	0,374
2153,278	0,377
2158,445	0,378
2201,071	0,378
2195,904	0,379
2223,030	0,380
2239,822	0,382
2244,989	0,385
2246,281	0,386
2270,823	0,387
2279,865	0,387
2277,282	0,389
2283,740	0,390
2279,865	0,391
2292,782	0,392
2348,326	0,394
2359,951	0,399
2372,868	0,400
2393,535	0,401
2397,410	0,403
2414,203	0,406
2430,995	0,407
2429,703	0,407
2424,537	0,408
2454,246	0,409
2460,704	0,410
2472,330	0,411
2474,913	0,413
2476,205	0,414
2482,663	0,414
2473,621	0,414
2468,455	0,414
2465,871	0,414
2460,704	0,413
2467,163	0,413
2442,620	0,413
2432,287	0,412
2416,786	0,411
2414,203	0,411
2348,326	0,410
2349,617	0,407
2344,451	0,407
2326,367	0,407
2341,867	0,407
2326,367	0,407
2294,074	0,406
2255,323	0,404
2260,490	0,402
2217,863	0,402
2211,405	0,400
2199,779	0,400
2207,530	0,400
2175,237	0,400
2126,152	0,397
2127,444	0,396
2123,568	0,396
2105,484	0,396
2137,777	0,395
2128,735	0,396
2105,484	0,395
2124,860	0,395
2110,651	0,395
2114,527	0,394
2111,943	0,395
2070,609	0,394
2061,566	0,393
2020,232	0,391
2006,023	0,389
1993,106	0,388
1972,439	0,388
1960,813	0,387
1954,355	0,387
1929,812	0,385
1918,187	0,384
1882,019	0,383
1892,353	0,382
1841,976	0,382
1825,184	0,379
1839,393	0,379
1817,434	0,378
1814,850	0,378
1810,975	0,378
1825,184	0,378
1800,641	0,377
1805,808	0,376
1803,225	0,376
1760,598	0,375
1765,765	0,373
1752,848	0,372
1747,681	0,372
1742,514	0,372
1720,555	0,372
1729,597	0,371
1715,389	0,371
1725,722	0,370
1690,846	0,371
1648,220	0,366
1636,594	0,365
1636,594	0,364
1621,094	0,365
1643,053	0,365
1577,176	0,364
1546,175	0,359
1544,883	0,358
1528,091	0,358
1497,090	0,356
1503,548	0,355
1499,673	0,355
1500,965	0,355
1507,424	0,355
1491,923	0,355
1489,340	0,355
1472,547	0,354
1464,797	0,351
1451,880	0,351
1459,630	0,351
1450,589	0,351
1449,297	0,351
1440,255	0,351
1437,671	0,350
1392,462	0,349
1410,546	0,346
1397,628	0,346
1389,878	0,346
1388,586	0,346
1417,004	0,346
1395,045	0,346
1371,794	0,345
1325,293	0,342
1317,542	0,340
1321,418	0,339
1311,084	0,339
1238,748	0,336
1223,248	0,333
1202,580	0,331
1174,163	0,325
1150,912	0,323
1148,329	0,323
1137,995	0,323
1150,912	0,323
1140,578	0,323
1152,204	0,323
1139,287	0,323
1110,869	0,321
1065,659	0,318
1051,451	0,315
1028,200	0,313
1020,450	0,311
1016,574	0,310
1008,824	0,310
990,740	0,309
967,490	0,306
970,073	0,305
948,114	0,302
940,364	0,302
950,697	0,302
911,946	0,302
869,320	0,295
878,362	0,294
873,195	0,293
862,861	0,293
789,234	0,288
784,067	0,283
771,150	0,282
785,359	0,281
755,649	0,280
719,482	0,276
694,939	0,269
665,230	0,267
671,688	0,265
612,515	0,263
582,540	0,255
597,133	0,254
599,105	0,254
585,301	0,254
571,891	0,252
536,394	0,250
493,798	0,241
463,823	0,236
456,330	0,231
437,004	0,228
430,693	0,225
408,212	0,224
380,998	0,218
341,951	0,214
337,219	0,211
307,638	0,208
259,915	0,198
259,915	0,194
216,135	0,192
193,148	0,182
188,014	0,176
187,244	0,176
164,529	0,175
148,358	0,169
141,300	0,166
120,252	0,165
96,638	0,157
72,639	0,153
9,232	0,142
3,993	0,130
2,504	0,128
1,759	0,127
1,335	0,127
2,311	0,127
0,912	0,127
1,733	0,127
1,258	0,127
0,719	0,127
0,308	0,127
1,708	0,127
1,066	0,127
0,526	0,127
-0,989	0,127
-1,066	0,127
-1,053	0,127
-1,592	0,126
-0,437	0,126
-0,693	0,126
-2,530	0,126
-0,783	0,126
-1,605	0,126
-1,194	0,126
-0,796	0,126
-1,515	0,126
-1,669	0,126
-1,810	0,126
-3,017	0,126
-1,258	0,126
-1,631	0,126
-2,555	0,126
-2,581	0,126
-2,234	0,126
-1,400	0,126
-4,648	0,126
-74,179	0,123
-93,686	0,105
-107,932	0,099
-113,579	0,096
-118,840	0,093
-130,776	0,091
-137,449	0,089
-140,273	0,087
-140,273	0,086
-147,973	0,085
-159,652	0,083
-180,827	0,079
-196,100	0,073
-216,249	0,067
-224,334	0,063
-228,312	0,060
-229,082	0,059
-229,211	0,058
-282,790	0,056
-303,300	0,039
-298,172	0,037
-321,048	0,034
-338,007	0,028
-354,573	0,024
-355,756	0,023
-341,951	0,022
-380,209	0,018
-409,001	0,013
-432,665	0,005
-444,497	-0,004
-487,094	-0,013
-494,982	-0,020
-493,404	-0,022
-500,898	-0,024
-511,941	-0,026
-535,211	-0,028
-595,556	-0,041
-629,080	-0,058
-648,801	-0,066
-651,956	-0,068
-653,928	-0,070
-648,406	-0,071
-674,043	-0,071
-712,695	-0,080
-732,021	-0,091
-730,837	-0,096
-736,754	-0,097
-751,347	-0,098
-763,968	-0,100
-774,617	-0,105
-856,403	-0,110
-853,819	-0,126
-866,736	-0,130
-941,655	-0,135
-985,573	-0,155
-989,449	-0,162
-1008,824	-0,165
-1033,367	-0,170
-1032,075	-0,175
-1033,367	-0,177
-1051,451	-0,177
-1063,076	-0,178
-1113,453	-0,186
-1163,829	-0,199
-1175,454	-0,203
-1153,495	-0,204
-1162,537	-0,205
-1172,871	-0,206
-1171,579	-0,209
-1189,663	-0,211
-1192,247	-0,213
-1216,789	-0,217
-1251,665	-0,221
-1268,458	-0,226
-1272,333	-0,229
-1276,208	-0,231
-1303,334	-0,233
-1330,459	-0,237
-1303,334	-0,242
-1316,251	-0,243
-1309,792	-0,244
-1305,917	-0,244
-1355,002	-0,245
-1384,711	-0,251
-1404,087	-0,256
-1414,421	-0,259
-1409,254	-0,260
-1405,379	-0,261
-1426,046	-0,262
-1441,546	-0,263
-1438,963	-0,264
-1423,463	-0,266
-1453,172	-0,269
-1486,756	-0,271
-1510,007	-0,277
-1534,549	-0,281
-1517,757	-0,281
-1538,425	-0,282
-1534,549	-0,282
-1543,591	-0,282
-1553,925	-0,286
-1559,092	-0,287
-1538,425	-0,288
-1564,259	-0,288
-1591,385	-0,289
-1568,134	-0,290
-1561,675	-0,290
-1601,718	-0,293
-1608,177	-0,294
-1588,801	-0,295
-1601,718	-0,295
-1597,843	-0,296
-1596,552	-0,296
-1609,469	-0,296
-1600,427	-0,296
-1595,260	-0,296
-1627,552	-0,298
-1634,011	-0,300
-1649,511	-0,303
-1635,303	-0,303
-1658,554	-0,304
-1646,928	-0,305
-1657,262	-0,304
-1680,512	-0,304
-1702,472	-0,307
-1716,680	-0,312
-1705,055	-0,312
-1702,472	-0,313
-1706,347	-0,313
-1725,722	-0,313
-1717,972	-0,313
-1725,722	-0,313
-1736,056	-0,314
-1745,098	-0,315
-1750,265	-0,316
-1760,598	-0,318
-1739,931	-0,320
-1765,765	-0,321
-1791,599	-0,322
-1786,433	-0,323
-1782,557	-0,325
-1783,849	-0,325
-1789,016	-0,325
-1823,892	-0,327
-1809,683	-0,328
-1843,268	-0,330
-1834,226	-0,331
-1840,684	-0,332
-1867,810	-0,333
-1874,269	-0,337
-1875,560	-0,339
-1889,769	-0,340
-1898,811	-0,342
-1884,602	-0,342
-1884,602	-0,342
-1891,061	-0,342
-1888,478	-0,342
-1896,228	-0,342
-1892,353	-0,342
-1898,811	-0,343
-1925,937	-0,346
-1958,230	-0,349
-1960,813	-0,351
-1999,564	-0,356
-1996,981	-0,357
-2017,648	-0,359
-2048,649	-0,362
-2079,650	-0,368
-2106,776	-0,371
-2106,776	-0,371
-2096,443	-0,372
-2097,734	-0,372
-2087,401	-0,371
-2113,235	-0,371
-2136,485	-0,372
-2181,695	-0,379
-2182,987	-0,380
-2194,612	-0,381
-2275,990	-0,388
-2272,115	-0,391
-2273,407	-0,393
-2265,656	-0,394
-2283,740	-0,393
-2300,532	-0,396
-2327,658	-0,398
-2304,407	-0,398
-2337,992	-0,397
-2334,117	-0,398
-2354,784	-0,399
-2367,701	-0,401
-2366,410	-0,402
-2393,535	-0,405
-2421,953	-0,406
-2440,037	-0,406
-2463,288	-0,409
-2486,539	-0,413
-2503,331	-0,415
-2526,581	-0,418
-2551,124	-0,421
-2545,957	-0,424
-2584,708	-0,426
-2615,709	-0,431
-2636,376	-0,429
-2705,664	-0,434
-2744,990	-0,439
-2772,520	-0,442
-2788,250	-0,442
-2788,250	-0,444
-2807,913	-0,445
-2843,307	-0,448
-2870,835	-0,450
-2902,297	-0,453
-2910,162	-0,454
-2918,028	-0,454
-2902,297	-0,455
-2933,758	-0,456
-2937,691	-0,457
-2925,893	-0,458
-2937,691	-0,458
-2953,421	-0,459
-2977,017	-0,460
-3004,546	-0,462
-3024,209	-0,464
-3067,468	-0,467
-3094,997	-0,472
-3130,391	-0,480
-3118,593	-0,481
-3142,188	-0,481
-3126,458	-0,481
-3114,660	-0,482
-3142,188	-0,482
-3118,593	-0,481
-3130,391	-0,481
-3146,121	-0,482
-3146,121	-0,481
-3122,525	-0,481
-3122,525	-0,481
-3102,862	-0,481
-3126,458	-0,481
-3079,266	-0,481
-3083,199	-0,479
-3051,738	-0,478
-3016,344	-0,477
-3016,344	-0,477
-3016,344	-0,476
-3000,613	-0,476
-2992,748	-0,476
-2973,084	-0,475
-2949,489	-0,474
-2933,758	-0,473
-2894,431	-0,472
-2851,172	-0,471
-2835,442	-0,469
-2839,375	-0,469
-2823,644	-0,468
-2776,452	-0,467
-2756,789	-0,466
-2717,462	-0,464
-2705,664	-0,463
-2670,271	-0,462
-2634,876	-0,460
-2619,146	-0,459
-2583,752	-0,458
-2575,886	-0,456
-2556,223	-0,456
-2536,560	-0,454
-2532,627	-0,454
-2536,560	-0,453
-2536,560	-0,453
-2520,830	-0,453
-2516,897	-0,453
-2473,638	-0,451
-2473,638	-0,451
-2461,840	-0,451
-2457,907	-0,450
-2418,581	-0,450
-2426,446	-0,449
-2410,716	-0,447
-2391,052	-0,447
-2363,523	-0,445
-2324,197	-0,443
-2304,534	-0,442
-2296,668	-0,441
-2284,871	-0,441
-2265,207	-0,440
-2265,207	-0,439
-2241,611	-0,438
-2202,285	-0,437
-2186,554	-0,435
-2147,228	-0,432
-2127,564	-0,431
-2100,036	-0,430
-2072,507	-0,428
-2033,181	-0,426
-1982,056	-0,423
-1978,124	-0,421
-1900,103	-0,419
-1893,644	-0,414
-1854,893	-0,413
-1826,475	-0,411
-1827,767	-0,409
-1816,142	-0,409
-1812,267	-0,408
-1803,225	-0,408
-1787,724	-0,407
-1737,348	-0,404
-1727,014	-0,402
-1685,679	-0,401
-1676,637	-0,398
-1681,804	-0,398
-1661,137	-0,397
-1659,845	-0,397
-1644,345	-0,396
-1624,969	-0,395
-1584,926	-0,392
-1603,010	-0,392
-1613,344	-0,392
-1573,301	-0,391
-1568,134	-0,390
-1584,926	-0,389
-1573,301	-0,389
-1538,425	-0,388
-1521,632	-0,385
-1498,382	-0,384
-1488,048	-0,382
-1481,589	-0,381
-1475,131	-0,380
-1426,046	-0,378
-1384,711	-0,374
-1382,128	-0,372
-1366,627	-0,371
-1344,668	-0,370
-1321,418	-0,367
-1305,917	-0,365
-1272,333	-0,363
-1260,707	-0,361
-1241,332	-0,359
-1228,415	-0,357
-1203,872	-0,355
-1198,705	-0,354
-1178,038	-0,353
-1196,122	-0,350
-1180,621	-0,350
-1127,661	-0,348
-1121,203	-0,344
-1088,910	-0,340
-1046,284	-0,338
-1028,200	-0,334
-1008,824	-0,333
-949,406	-0,327
-930,030	-0,321
-920,988	-0,320
-880,945	-0,319
-847,361	-0,312
-829,277	-0,309
-843,486	-0,308
-809,901	-0,307
-815,068	-0,305
-812,484	-0,305
-795,692	-0,305
-769,858	-0,302
-737,565	-0,299
-727,232	-0,296
-707,856	-0,293
-679,439	-0,287
-666,521	-0,285
-601,077	-0,281
-601,472	-0,273
-561,637	-0,270
-552,565	-0,263
-545,071	-0,261
-504,447	-0,260
-472,895	-0,255
-439,370	-0,248
-409,790	-0,243
-381,787	-0,235
-343,924	-0,228
-342,740	-0,224
-330,119	-0,221
-303,300	-0,217
-294,623	-0,214
-269,380	-0,212
-246,505	-0,206
-221,657	-0,200
-219,685	-0,198
-216,135	-0,197
-174,796	-0,191
-168,379	-0,185
-134,113	-0,181
-115,760	-0,173
-109,215	-0,169
-102,927	-0,167
-85,729	-0,165
-72,126	-0,159
-65,580	-0,157
-56,717	-0,156
-21,254	-0,149
-4,610	-0,141
-3,313	-0,139
-1,990	-0,138
-2,067	-0,138
-1,810	-0,138
-1,220	-0,137
-1,810	-0,137
-1,014	-0,137
-1,631	-0,137
-1,977	-0,137
0,180	-0,136
1,258	-0,136
1,939	-0,136
1,823	-0,136
0,950	-0,136
1,451	-0,136
0,950	-0,136
1,014	-0,136
2,311	-0,136
1,566	-0,136
1,400	-0,136
1,477	-0,136
1,156	-0,136
0,912	-0,136
2,298	-0,136
3,659	-0,136
14,599	-0,136
75,976	-0,128
83,419	-0,114
84,189	-0,113
86,628	-0,111
87,654	-0,111
91,248	-0,111
120,637	-0,107
135,781	-0,100
141,813	-0,096
143,995	-0,094
146,946	-0,093
154,262	-0,093
160,294	-0,090
164,657	-0,089
166,069	-0,088
193,918	-0,087
212,655	-0,076
219,329	-0,072
229,339	-0,070
251,798	-0,065
260,012	-0,060
276,480	-0,058
302,905	-0,049
313,949	-0,045
368,771	-0,036
352,995	-0,028
375,476	-0,024
378,631	-0,022
401,507	-0,020
390,464	-0,017
433,060	-0,011
427,538	-0,006
434,637	-0,004
463,429	-0,001
476,050	0,007
477,233	0,011
494,193	0,013
536,000	0,019
549,410	0,030
559,665	0,035
616,854	0,044
650,378	0,057
678,381	0,065
674,043	0,071
678,776	0,073
687,453	0,074
714,667	0,076
755,291	0,088
873,195	0,097
915,821	0,133
940,364	0,140
942,947	0,142
944,239	0,143
967,490	0,145
981,698	0,151
986,865	0,153
999,782	0,157
1011,408	0,161
1007,532	0,162
1057,909	0,166
1088,910	0,177
1139,287	0,188
1171,579	0,198
1170,288	0,202
1176,746	0,203
1170,288	0,204
1181,913	0,204
1180,621	0,205
1230,998	0,209
1209,039	0,212
1221,956	0,215
1228,415	0,215
1256,832	0,217
1245,207	0,221
1260,707	0,222
1267,166	0,222
1265,874	0,222
1281,375	0,223
1291,708	0,226
1289,125	0,230
1303,334	0,231
1295,583	0,231
1298,167	0,231
1316,251	0,233
1331,751	0,235
1340,793	0,236
1335,626	0,237
1347,252	0,238
1335,626	0,239
1344,668	0,242
1375,669	0,245
1387,295	0,248
1393,753	0,250
1400,212	0,253
1409,254	0,254
1419,587	0,255
1477,714	0,260
1507,424	0,268
1500,965	0,271
1493,215	0,271
1499,673	0,272
1499,673	0,272
1551,342	0,276
1546,175	0,281
1547,467	0,282
1552,633	0,283
1557,800	0,283
1544,883	0,283
1561,675	0,284
1599,135	0,287
1608,177	0,291
1626,261	0,293
1649,511	0,296
1672,762	0,300
1688,263	0,303
1733,473	0,308
1739,931	0,314
1742,514	0,316
1785,141	0,320
1792,891	0,323
1792,891	0,324
1812,267	0,325
1830,351	0,329
1858,768	0,332
1879,436	0,335
1913,020	0,338
1949,188	0,344
1967,272	0,348
2015,065	0,353
2020,232	0,357
2030,565	0,357
2022,815	0,358
2030,565	0,358
2021,524	0,358
2035,732	0,359
2035,732	0,360
2034,440	0,360
2051,233	0,361
2102,901	0,365
2097,734	0,369
2133,902	0,371
2113,235	0,371
2135,194	0,371
2144,236	0,374
2168,778	0,377
2171,362	0,377
2168,778	0,378
2162,320	0,378
2172,653	0,378
2211,405	0,379
2233,364	0,384
2248,864	0,386
2296,657	0,388
2313,449	0,393
2321,200	0,396
2350,909	0,397
2370,285	0,400
2374,160	0,401
2394,827	0,402
2376,743	0,402
2428,412	0,405
2440,037	0,408
2463,288	0,411
2472,330	0,413
2474,913	0,413
2460,704	0,413
2459,413	0,413
2477,497	0,413
2474,913	0,413
2527,873	0,417
2574,375	0,422
2623,460	0,427
2631,210	0,428
2674,203	0,431
2682,068	0,435
2689,934	0,436
2678,135	0,436
2713,530	0,437
2733,193	0,439
2760,721	0,441
2772,520	0,443
2788,250	0,445
2807,913	0,447
2811,846	0,448
2855,105	0,450
2874,768	0,452
2874,768	0,455
2886,566	0,456
2886,566	0,456
2906,229	0,457
2906,229	0,457
2910,162	0,457
2925,893	0,458
2921,960	0,459
2925,893	0,459
2965,219	0,461
2965,219	0,462
2988,815	0,464
2988,815	0,465
2984,883	0,465
3004,546	0,465
2996,680	0,465
2980,950	0,465
2988,815	0,465
2984,883	0,465
3012,411	0,466
3028,142	0,468
3043,872	0,468
3075,333	0,470
3059,603	0,472
3083,199	0,473
3102,862	0,474
3098,929	0,476
3110,727	0,476
3114,660	0,476
3118,593	0,477
3130,391	0,477
3134,323	0,477
3130,391	0,477
3122,525	0,477
3142,188	0,478
3126,458	0,478
3134,323	0,478
3122,525	0,478
3122,525	0,477
3114,660	0,477
3071,401	0,476
3063,536	0,475
3059,603	0,475
3028,142	0,474
3020,277	0,474
3000,613	0,474
3043,872	0,473
3024,209	0,473
3012,411	0,473
3020,277	0,474
3016,344	0,473
3008,478	0,473
3004,546	0,473
2980,950	0,473
2984,883	0,472
2977,017	0,472
2973,084	0,471
2977,017	0,471
2941,623	0,471
2933,758	0,470
2933,758	0,469
2921,960	0,469
2855,105	0,468
2827,576	0,466
2815,779	0,465
2792,182	0,464
2772,520	0,463
2705,664	0,460
2713,530	0,460
2713,530	0,460
2701,731	0,460
2674,203	0,458
2646,674	0,457
2619,146	0,456
2627,011	0,456
2627,011	0,456
2623,079	0,455
2627,011	0,456
2630,944	0,455
2611,281	0,455
2627,011	0,455
2548,358	0,454
2509,031	0,451
2501,166	0,449
2469,705	0,449
2430,378	0,447
2418,581	0,445
2398,917	0,444
2387,119	0,443
2383,187	0,442
2335,995	0,441
2304,534	0,439
2288,803	0,439
2284,871	0,438
2249,477	0,435
2210,150	0,434
2194,419	0,433
2178,689	0,431
2170,823	0,430
2135,429	0,430
2131,497	0,428
2111,834	0,428
2092,170	0,426
2076,440	0,425
2029,248	0,422
2009,585	0,420
1963,397	0,418
1968,563	0,416
1946,604	0,416
1958,230	0,416
1883,311	0,415
1865,227	0,410
1821,309	0,408
1791,599	0,405
1805,808	0,404
1805,808	0,404
1772,224	0,404
1785,141	0,404
1737,348	0,402
1706,347	0,398
1712,805	0,397
1717,972	0,397
1705,055	0,398
1710,222	0,397
1681,804	0,396
1662,429	0,393
1631,428	0,391
1605,593	0,391
1583,634	0,390
1570,717	0,388
1569,426	0,387
1573,301	0,387
1542,300	0,385
1542,300	0,385
1553,925	0,383
1524,216	0,382
1494,506	0,381
1463,505	0,378
1464,797	0,376
1432,505	0,375
1437,671	0,374
1401,503	0,373
1404,087	0,371
1378,253	0,369
1336,918	0,367
1316,251	0,365
1309,792	0,364
1299,458	0,362
1258,124	0,358
1252,957	0,356
1224,539	0,355
1220,664	0,354
1218,081	0,354
1176,746	0,352
1170,288	0,349
1152,204	0,346
1128,953	0,344
1125,078	0,342
1099,244	0,341
1061,784	0,338
1013,991	0,332
1012,699	0,329
1002,366	0,328
944,239	0,324
931,322	0,321
924,863	0,320
948,114	0,319
892,570	0,318
857,694	0,311
833,152	0,308
847,361	0,307
829,277	0,306
768,566	0,302
745,316	0,296
736,274	0,293
744,024	0,291
716,898	0,290
724,648	0,289
714,315	0,288
634,208	0,282
587,273	0,276
534,028	0,263
525,745	0,259
517,069	0,258
494,193	0,255
483,149	0,252
461,851	0,246
446,470	0,244
367,982	0,239
358,517	0,228
341,557	0,224
332,091	0,220
319,865	0,218
304,877	0,217
308,427	0,216
249,266	0,211
244,533	0,203
237,433	0,200
231,517	0,199
225,996	0,197
218,896	0,195
206,275	0,194
209,703	0,193
188,784	0,188
180,827	0,186
169,534	0,184
158,368	0,181
136,679	0,177
95,868	0,169
25,638	0,158
7,807	0,142
3,878	0,137
2,260	0,136
1,117	0,136
2,170	0,135
0,835	0,135
2,144	0,135
1,900	0,135
1,297	0,135
