Campo	Densidad de fl B
H/A/m	B/T

-0,809	-0,050
-1,579	-0,050
-0,732	-0,050
-0,205	-0,050
-0,449	-0,050
-0,244	-0,049
-1,566	-0,049
-0,989	-0,049
-2,311	-0,049
-1,644	-0,049
-1,194	-0,049
-0,501	-0,049
-1,387	-0,049
0,180	-0,050
-0,745	-0,049
-9,746	-0,049
-94,841	-0,053
-142,711	-0,057
-151,567	-0,059
-160,165	-0,059
-192,891	-0,061
-204,313	-0,063
-227,799	-0,064
-234,858	-0,065
-241,018	-0,066
-337,219	-0,067
-320,259	-0,074
-356,150	-0,075
-384,548	-0,076
-403,874	-0,079
-428,327	-0,081
-437,004	-0,082
-441,737	-0,083
-460,668	-0,084
-474,472	-0,067
-497,348	-0,072
-502,475	-0,073
-523,379	-0,075
-509,969	-0,076
-526,929	-0,076
-558,087	-0,079
-573,469	-0,080
-559,270	-0,081
-577,807	-0,081
-589,640	-0,082
-582,935	-0,083
-576,230	-0,083
-626,319	-0,065
-632,630	-0,068
-637,757	-0,068
-633,419	-0,068
-634,208	-0,068
-618,431	-0,068
-622,770	-0,068
-596,739	-0,067
-589,640	-0,067
-568,736	-0,066
-554,537	-0,065
-524,562	-0,064
-512,336	-0,064
-494,982	-0,063
-456,724	-0,061
-410,184	-0,059
-401,507	-0,058
-392,041	-0,057
-368,771	-0,057
-354,178	-0,055
-308,427	-0,054
-290,678	-0,053
-265,042	-0,051
-223,235	-0,049
-183,266	-0,047
-170,047	-0,045
-134,883	-0,044
-92,916	-0,040
-20,197	-0,038
-2,555	-0,033
-0,809	-0,033
-1,104	-0,033
-1,618	-0,033
-0,591	-0,033
-0,257	-0,033
-1,592	-0,033
-2,093	-0,033
-2,029	-0,033
-1,348	-0,033
0,514	-0,033
0,051	-0,033
0,539	-0,033
-0,732	-0,032
0,039	-0,032
1,233	-0,033
0,783	-0,032
0,244	-0,032
1,130	-0,033
1,605	-0,032
1,335	-0,033
0,424	-0,033
1,143	-0,032
-0,231	-0,033
1,104	-0,033
1,233	-0,032
2,607	-0,032
1,939	-0,032
7,165	-0,032
82,521	-0,031
89,323	-0,027
104,467	-0,025
139,246	-0,023
155,930	-0,021
165,042	-0,020
179,159	-0,019
195,586	-0,018
216,890	-0,016
227,029	-0,015
244,996	-0,014
293,045	-0,013
308,821	-0,018
327,358	-0,012
342,740	-0,012
355,361	-0,009
405,846	-0,003
399,141	0,002
427,932	0,004
444,497	0,006
433,060	0,008
463,429	0,010
480,783	0,016
489,460	0,019
485,121	0,021
505,631	0,021
496,954	0,023
506,814	0,024
514,702	0,025
514,308	0,027
525,745	0,028
519,435	0,029
536,789	0,031
545,466	0,033
559,665	0,035
573,863	0,038
583,723	0,041
606,599	0,043
600,289	0,045
622,375	0,048
619,615	0,050
589,640	0,049
558,087	0,049
564,003	0,047
506,025	0,045
506,419	0,043
495,771	0,043
483,149	0,042
470,528	0,041
462,640	0,040
446,864	0,039
414,523	0,038
434,243	0,038
419,650	0,038
397,563	0,036
349,051	0,034
351,417	0,032
330,908	0,031
297,778	0,030
269,775	0,027
266,225	0,025
229,940	0,022
200,754	0,021
166,967	0,019
155,032	0,015
142,455	0,014
95,355	0,012
84,189	0,008
78,928	0,007
64,682	0,007
7,229	0,005
2,363	-0,001
-0,167	-0,001
-0,013	-0,002
-0,141	-0,002
0,719	-0,002
1,066	-0,002
-0,039	-0,002
0,873	-0,002
1,823	-0,002
1,785	-0,002
0,141	-0,002
1,079	-0,001
-2,375	-0,002
-0,347	-0,002
-0,912	-0,002
-1,682	-0,002
-0,719	-0,002
-0,873	-0,002
-1,926	-0,002
-0,552	-0,002
-1,656	-0,002
-0,719	-0,002
-1,489	-0,002
0,501	-0,002
-1,220	-0,002
-0,642	-0,002
-1,284	-0,002
-1,708	-0,002
-2,568	-0,002
-0,501	-0,002
-2,093	-0,002
-2,183	-0,002
-3,197	-0,002
-2,889	-0,002
-4,391	-0,002
-105,493	-0,006
-111,782	-0,015
-131,289	-0,017
-147,203	-0,019
-159,138	-0,021
-162,732	-0,022
-170,304	-0,023
-179,159	-0,024
-189,554	-0,025
-206,367	-0,028
-220,612	-0,030
-229,852	-0,031
-236,526	-0,033
-261,167	-0,035
-329,330	-0,039
-321,837	-0,048
-345,896	-0,049
-369,166	-0,051
-356,545	-0,054
-405,451	-0,058
-415,311	-0,063
-427,932	-0,065
-438,976	-0,067
-444,497	-0,068
-463,823	-0,069
-452,386	-0,068
-493,404	-0,064
-502,475	-0,064
-514,702	-0,066
-530,873	-0,067
-525,351	-0,068
-559,270	-0,071
-587,668	-0,073
-613,304	-0,070
-627,897	-0,061
-657,083	-0,063
-675,620	-0,066
-685,481	-0,067
-691,791	-0,068
-721,766	-0,070
-747,797	-0,073
-761,601	-0,075
-820,235	-0,078
-839,610	-0,085
-855,111	-0,087
-848,652	-0,088
-868,028	-0,089
-864,153	-0,090
-879,653	-0,090
-877,070	-0,091
-901,612	-0,091
-900,321	-0,093
-897,737	-0,093
-897,737	-0,093
-930,030	-0,095
-932,613	-0,096
-920,988	-0,097
-957,156	-0,099
-972,656	-0,100
-1025,616	-0,103
-1021,741	-0,106
-1033,367	-0,107
-1044,992	-0,108
-1064,368	-0,110
-1095,369	-0,111
-1085,035	-0,113
-1095,369	-0,114
-1110,869	-0,114
-1099,244	-0,115
-1125,078	-0,115
-1121,203	-0,116
-1131,536	-0,116
-1127,661	-0,118
-1143,162	-0,118
-1149,620	-0,119
-1140,578	-0,120
-1158,662	-0,121
-1174,163	-0,121
-1176,746	-0,122
-1178,038	-0,123
-1185,788	-0,123
-1187,080	-0,124
-1194,830	-0,124
-1196,122	-0,124
-1201,289	-0,125
-1192,247	-0,124
-1185,788	-0,125
-1203,872	-0,124
-1190,955	-0,124
-1198,705	-0,125
-1185,788	-0,124
-1193,538	-0,124
-1188,372	-0,124
-1189,663	-0,124
-1154,787	-0,124
-1167,704	-0,123
-1135,411	-0,123
-1121,203	-0,122
-1097,952	-0,121
-1083,743	-0,121
-1094,077	-0,120
-1034,658	-0,119
-1013,991	-0,118
-1025,616	-0,117
-1007,532	-0,117
-980,407	-0,116
-967,490	-0,115
-944,239	-0,114
-949,406	-0,114
-915,821	-0,113
-902,904	-0,111
-877,070	-0,111
-852,528	-0,110
-834,444	-0,108
-800,859	-0,108
-782,775	-0,106
-777,608	-0,105
-764,691	-0,104
-728,523	-0,103
-702,689	-0,101
-694,939	-0,100
-682,022	-0,099
-654,896	-0,098
-595,950	-0,097
-580,963	-0,094
-578,596	-0,093
-570,314	-0,093
-564,003	-0,092
-530,873	-0,091
-512,336	-0,090
-500,898	-0,089
-494,193	-0,088
-478,811	-0,088
-455,935	-0,086
-448,836	-0,084
-425,960	-0,084
-405,057	-0,083
-414,523	-0,082
-405,451	-0,081
-366,010	-0,080
-369,166	-0,079
-362,066	-0,078
-343,135	-0,077
-334,063	-0,076
-316,709	-0,075
-311,188	-0,074
-283,185	-0,073
-281,213	-0,072
-254,393	-0,071
-234,673	-0,070
-227,573	-0,068
-220,474	-0,067
-186,218	-0,066
-172,614	-0,063
-165,299	-0,062
-156,443	-0,062
-134,369	-0,060
-108,445	-0,057
-89,580	-0,056
-77,901	-0,054
-52,098	-0,053
-22,546	-0,049
-6,343	-0,046
-2,324	-0,045
0,128	-0,045
-1,207	-0,045
-1,656	-0,045
-0,629	-0,045
-0,770	-0,045
-2,517	-0,045
-0,231	-0,045
-1,708	-0,045
-0,924	-0,045
-0,732	-0,045
-1,220	-0,045
-1,104	-0,045
-1,990	-0,045
0,591	-0,045
1,412	-0,045
0,180	-0,045
1,258	-0,045
0,347	-0,045
1,002	-0,045
1,836	-0,045
1,644	-0,045
1,746	-0,045
0,629	-0,045
1,002	-0,045
1,143	-0,045
0,270	-0,045
0,398	-0,045
1,464	-0,045
1,181	-0,045
1,117	-0,045
1,541	-0,045
4,083	-0,045
3,197	-0,044
73,922	-0,043
83,163	-0,036
86,243	-0,035
96,510	-0,035
103,953	-0,033
118,584	-0,032
132,059	-0,030
146,305	-0,029
156,572	-0,027
168,507	-0,026
170,304	-0,025
174,924	-0,024
185,704	-0,024
207,393	-0,022
230,109	-0,019
250,771	-0,016
286,340	-0,014
288,706	-0,010
299,750	-0,008
326,570	-0,018
339,585	-0,012
412,550	-0,005
461,851	0,010
484,727	0,019
481,177	0,019
483,149	0,020
507,603	0,025
519,829	0,028
542,311	0,030
548,227	0,035
570,314	0,038
564,003	0,040
587,668	0,041
584,907	0,044
599,105	0,045
623,953	0,047
638,546	0,052
655,506	0,055
656,294	0,057
676,804	0,059
672,465	0,062
694,158	0,063
694,946	0,053
710,723	0,055
737,937	0,058
729,654	0,059
738,331	0,061
764,757	0,062
756,474	0,063
774,617	0,063
766,729	0,064
762,390	0,065
769,884	0,065
791,182	0,049
809,901	0,053
822,818	0,055
833,152	0,057
847,361	0,057
853,819	0,059
844,777	0,059
889,987	0,060
900,321	0,062
908,071	0,063
896,446	0,064
896,446	0,064
904,196	0,064
915,821	0,065
920,988	0,066
933,905	0,067
949,406	0,070
958,448	0,071
985,573	0,073
994,615	0,075
1007,532	0,077
995,907	0,077
1017,866	0,078
1023,033	0,079
1019,158	0,079
1041,117	0,079
1030,783	0,081
1025,616	0,081
1054,034	0,083
1087,618	0,084
1092,785	0,086
1095,369	0,088
1087,618	0,089
1085,035	0,089
1116,036	0,090
1125,078	0,092
1140,578	0,093
1132,828	0,093
1149,620	0,093
1153,495	0,094
1170,288	0,095
1171,579	0,096
1156,079	0,097
1180,621	0,098
1175,454	0,098
1183,205	0,099
1201,289	0,099
1178,038	0,099
1184,497	0,099
1189,663	0,099
1207,747	0,100
1199,997	0,101
1193,538	0,101
1218,081	0,101
1225,831	0,102
1215,498	0,102
1216,789	0,103
1207,747	0,103
1216,789	0,103
1216,789	0,102
1209,039	0,102
1234,873	0,103
1202,580	0,102
1194,830	0,102
1209,039	0,102
1178,038	0,102
1170,288	0,101
1131,536	0,100
1152,204	0,100
1132,828	0,100
1123,786	0,100
1122,494	0,099
1112,161	0,099
1100,536	0,099
1104,411	0,099
1108,286	0,098
1109,578	0,098
1077,285	0,098
1068,243	0,098
1059,201	0,098
1069,535	0,097
1054,034	0,096
1039,825	0,096
1010,116	0,096
1025,616	0,095
1020,450	0,096
1007,532	0,095
1021,741	0,095
1010,116	0,094
986,865	0,094
949,406	0,092
946,822	0,092
941,655	0,091
927,447	0,091
945,531	0,090
926,155	0,090
919,696	0,090
911,946	0,089
893,862	0,089
873,195	0,089
873,195	0,089
873,195	0,088
883,528	0,088
855,111	0,088
862,861	0,087
866,736	0,087
834,444	0,087
837,027	0,087
834,444	0,086
822,818	0,085
817,651	0,085
786,650	0,085
799,567	0,084
780,192	0,083
760,816	0,083
763,400	0,082
772,442	0,082
760,816	0,082
737,565	0,082
753,066	0,081
722,065	0,081
714,315	0,081
694,939	0,080
666,521	0,079
687,189	0,078
678,147	0,078
676,855	0,078
653,604	0,077
640,518	0,076
631,841	0,075
614,487	0,075
602,261	0,074
574,258	0,073
563,214	0,072
536,000	0,071
517,463	0,070
500,898	0,067
495,376	0,067
504,842	0,067
500,898	0,067
485,516	0,067
464,218	0,066
451,597	0,065
440,553	0,064
425,566	0,063
423,594	0,062
418,861	0,062
413,339	0,062
386,520	0,062
374,293	0,060
365,616	0,059
339,585	0,058
337,219	0,057
318,287	0,056
306,060	0,055
286,340	0,054
270,169	0,052
259,915	0,052
250,843	0,050
249,660	0,049
242,561	0,049
209,431	0,047
207,064	0,047
169,020	0,045
157,598	0,043
151,182	0,042
125,386	0,041
101,002	0,039
86,371	0,037
73,537	0,036
48,928	0,035
11,004	0,031
4,378	0,029
1,464	0,029
2,812	0,028
1,207	0,028
0,681	0,028
1,849	0,028
1,181	0,028
2,234	0,028
0,218	0,028
0,655	0,028
2,311	0,028
-0,103	0,028
1,284	0,028
-0,526	0,028
1,258	0,028
0,385	0,028
0,668	0,028
0,950	0,028
1,656	0,028
1,130	0,028
1,387	0,028
1,220	0,028
1,708	0,028
1,798	0,028
0,770	0,028
2,080	0,028
0,899	0,028
1,156	0,028
1,644	0,028
1,271	0,028
1,425	0,028
2,260	0,028
0,488	0,028
0,051	0,028
0,963	0,028
0,681	0,028
0,231	0,028
0,334	0,028
-0,064	0,028
-2,645	0,028
-1,939	0,028
-1,592	0,028
-1,733	0,028
-1,091	0,028
-2,979	0,028
-1,682	0,028
-0,526	0,028
-0,334	0,028
-0,950	0,028
-2,696	0,028
-1,245	0,028
-1,233	0,028
-0,372	0,028
-0,282	0,028
-1,310	0,028
-1,400	0,028
-3,544	0,028
-85,729	0,026
-105,365	0,019
-125,129	0,017
-147,460	0,015
-157,213	0,012
-160,935	0,012
-167,737	0,011
-180,699	0,010
-190,453	0,008
-211,757	0,007
-225,361	0,005
-233,061	0,004
-230,109	0,003
-301,328	0,007
-309,216	-0,007
-324,992	-0,009
-344,318	-0,013
-347,868	-0,016
-359,700	-0,020
-382,576	-0,025
-404,662	-0,028
-407,029	-0,032
-423,988	-0,035
-446,075	-0,039
-453,174	-0,042
-459,879	-0,046
-494,587	-0,049
-481,966	-0,052
-504,842	-0,054
-516,674	-0,055
-529,690	-0,059
-534,422	-0,063
-550,988	-0,065
-574,652	-0,067
-588,062	-0,070
-623,559	-0,079
-633,813	-0,083
-633,419	-0,053
-662,999	-0,055
-691,791	-0,057
-681,931	-0,058
-717,033	-0,061
-734,387	-0,063
-740,698	-0,064
-755,685	-0,066
-757,657	-0,067
-776,194	-0,068
-762,390	-0,068
-791,576	-0,070
-800,253	-0,071
-794,732	-0,072
-813,776	-0,074
-835,735	-0,076
-834,444	-0,077
-853,819	-0,078
-843,486	-0,079
-857,694	-0,079
-887,404	-0,081
-897,737	-0,082
-895,154	-0,084
-923,571	-0,087
-933,905	-0,087
-957,156	-0,089
-962,323	-0,091
-980,407	-0,092
-993,324	-0,095
-1013,991	-0,097
-1033,367	-0,098
-1019,158	-0,099
-1041,117	-0,100
-1073,410	-0,103
-1083,743	-0,106
-1081,160	-0,106
-1081,160	-0,107
-1099,244	-0,106
-1087,618	-0,107
-1117,328	-0,107
-1209,039	-0,115
-1254,249	-0,121
-1238,748	-0,123
-1259,416	-0,124
-1268,458	-0,125
-1263,291	-0,125
-1278,791	-0,126
-1290,417	-0,127
-1304,625	-0,128
-1300,750	-0,130
-1295,583	-0,130
-1336,918	-0,131
-1352,418	-0,133
-1365,336	-0,134
-1389,878	-0,136
-1391,170	-0,136
-1414,421	-0,138
-1402,795	-0,140
-1435,088	-0,141
-1460,922	-0,143
-1489,340	-0,147
-1486,756	-0,148
-1507,424	-0,149
-1520,341	-0,150
-1543,591	-0,151
-1543,591	-0,152
-1552,633	-0,152
-1559,092	-0,153
-1566,842	-0,154
-1565,550	-0,155
-1615,927	-0,157
-1612,052	-0,159
-1608,177	-0,159
-1617,219	-0,159
-1631,428	-0,160
-1643,053	-0,160
-1634,011	-0,161
-1657,262	-0,162
-1668,887	-0,163
-1696,013	-0,165
-1724,431	-0,167
-1701,180	-0,168
-1733,473	-0,168
-1770,932	-0,171
-1782,557	-0,173
-1785,141	-0,173
-1790,308	-0,174
-1800,641	-0,174
-1791,599	-0,174
-1817,434	-0,174
-1800,641	-0,175
-1798,058	-0,175
-1830,351	-0,176
-1814,850	-0,176
-1814,850	-0,176
-1816,142	-0,176
-1832,934	-0,177
-1847,143	-0,178
-1830,351	-0,179
-1865,227	-0,179
-1840,684	-0,179
-1849,726	-0,179
-1856,185	-0,179
-1836,809	-0,179
-1810,975	-0,179
-1800,641	-0,177
-1785,141	-0,177
-1767,057	-0,176
-1776,099	-0,176
-1756,723	-0,175
-1717,972	-0,175
-1714,097	-0,174
-1698,596	-0,174
-1696,013	-0,173
-1677,929	-0,173
-1666,304	-0,173
-1671,470	-0,172
-1661,137	-0,171
-1615,927	-0,171
-1634,011	-0,170
-1613,344	-0,170
-1623,677	-0,170
-1588,801	-0,169
-1577,176	-0,169
-1562,967	-0,168
-1560,384	-0,168
-1559,092	-0,168
-1508,715	-0,167
-1490,631	-0,166
-1482,881	-0,165
-1477,714	-0,164
-1437,671	-0,163
-1440,255	-0,162
-1417,004	-0,161
-1373,086	-0,160
-1388,586	-0,159
-1353,710	-0,158
-1330,459	-0,157
-1313,667	-0,156
-1283,958	-0,156
-1268,458	-0,155
-1227,123	-0,152
-1209,039	-0,151
-1211,622	-0,151
-1203,872	-0,150
-1178,038	-0,149
-1166,413	-0,149
-1154,787	-0,149
-1141,870	-0,148
-1128,953	-0,146
-1085,035	-0,145
-1048,867	-0,143
-1030,783	-0,141
-1024,325	-0,140
-962,323	-0,138
-930,030	-0,136
-930,030	-0,135
-928,738	-0,134
-873,195	-0,133
-840,902	-0,131
-830,568	-0,129
-840,902	-0,128
-775,025	-0,126
-762,108	-0,125
-734,982	-0,123
-711,731	-0,122
-680,730	-0,118
-648,438	-0,116
-595,556	-0,114
-556,509	-0,110
-536,789	-0,109
-507,603	-0,106
-491,432	-0,104
-488,671	-0,103
-468,556	-0,102
-454,752	-0,100
-432,271	-0,098
-411,762	-0,097
-401,901	-0,096
-393,225	-0,095
-343,135	-0,092
-319,470	-0,088
-294,228	-0,086
-291,073	-0,085
-296,989	-0,084
-283,974	-0,084
-282,396	-0,083
-276,085	-0,083
-274,113	-0,083
-295,411	-0,083
-270,169	-0,083
-299,355	-0,083
-267,803	-0,083
-272,141	-0,083
-260,704	-0,082
-258,731	-0,082
-251,238	-0,081
-233,884	-0,080
-209,431	-0,078
-218,107	-0,076
-184,293	-0,074
-173,512	-0,072
-165,427	-0,072
-156,187	-0,071
-130,263	-0,069
-98,050	-0,065
-67,506	-0,062
-10,503	-0,058
-4,699	-0,053
-3,762	-0,052
-2,465	-0,052
-2,632	-0,052
-1,887	-0,052
-1,862	-0,052
-1,579	-0,052
-0,745	-0,051
-1,181	-0,051
-0,860	-0,052
-0,372	-0,052
-1,143	-0,052
-2,067	-0,051
-1,605	-0,051
-0,693	-0,051
-1,592	-0,052
-1,695	-0,051
-0,270	-0,051
-0,655	-0,051
2,247	-0,051
0,167	-0,051
1,348	-0,051
1,566	-0,051
2,080	-0,051
1,104	-0,051
3,467	-0,051
1,528	-0,051
1,425	-0,051
1,721	-0,051
1,027	-0,051
1,836	-0,051
3,287	-0,051
105,878	-0,051
137,064	-0,036
153,107	-0,033
171,074	-0,030
206,367	-0,027
223,564	-0,023
243,328	-0,021
256,418	-0,018
306,849	-0,016
337,613	-0,009
334,063	-0,014
366,405	-0,006
393,225	0,001
427,538	0,006
456,330	0,011
483,149	0,021
496,954	0,025
529,690	0,031
541,127	0,033
555,326	0,038
563,609	0,042
569,130	0,044
586,879	0,045
639,335	0,053
657,872	0,063
670,099	0,065
657,478	0,066
663,788	0,067
681,931	0,068
688,242	0,068
674,832	0,068
707,962	0,065
716,244	0,065
731,626	0,065
735,176	0,065
781,716	0,066
778,561	0,069
806,564	0,053
837,027	0,057
855,111	0,061
891,279	0,063
911,946	0,065
920,988	0,067
919,696	0,070
949,406	0,072
963,614	0,073
972,656	0,074
986,865	0,075
1004,949	0,078
1020,450	0,079
1020,450	0,081
1004,949	0,081
1032,075	0,081
1019,158	0,082
1046,284	0,082
1035,950	0,082
1070,826	0,084
1096,660	0,089
1086,327	0,090
1122,494	0,091
1106,994	0,092
1131,536	0,092
1137,995	0,093
1148,329	0,093
1152,204	0,095
1156,079	0,096
1163,829	0,097
1188,372	0,097
1166,413	0,097
1137,995	0,097
1175,454	0,097
1190,955	0,097
1263,291	0,104
1268,458	0,109
1291,708	0,110
1308,500	0,110
1286,542	0,112
1314,959	0,114
1303,334	0,114
1348,543	0,115
1376,961	0,119
1393,753	0,121
1387,295	0,122
1386,003	0,123
1414,421	0,124
1426,046	0,125
1422,171	0,126
1486,756	0,130
1455,755	0,132
1482,881	0,132
1512,590	0,133
1535,841	0,135
1533,258	0,137
1541,008	0,139
1538,425	0,140
1555,217	0,140
1574,592	0,141
1582,343	0,143
1591,385	0,143
1605,593	0,144
1613,344	0,145
1631,428	0,147
1634,011	0,148
1630,136	0,148
1622,386	0,148
1627,552	0,149
1622,386	0,149
1672,762	0,150
1655,970	0,152
1677,929	0,153
1698,596	0,154
1714,097	0,156
1721,847	0,157
1719,264	0,157
1732,181	0,158
1725,722	0,159
1742,514	0,159
1748,973	0,160
1777,391	0,161
1763,182	0,162
1769,640	0,163
1759,307	0,164
1776,099	0,164
1781,266	0,164
1810,975	0,164
1794,183	0,165
1808,392	0,165
1803,225	0,165
1814,850	0,166
1810,975	0,166
1826,475	0,167
1821,309	0,167
1805,808	0,167
1831,642	0,168
1858,768	0,168
1832,934	0,169
1827,767	0,169
1800,641	0,169
1745,098	0,166
1738,639	0,165
1729,597	0,165
1734,764	0,165
1708,930	0,164
1677,929	0,164
1659,845	0,163
1636,594	0,162
1636,594	0,162
1658,554	0,161
1624,969	0,161
1626,261	0,160
1623,677	0,160
1610,760	0,160
1608,177	0,160
1569,426	0,159
1572,009	0,158
1565,550	0,158
1553,925	0,158
1560,384	0,158
1544,883	0,157
1535,841	0,157
1519,049	0,156
1515,174	0,156
1504,840	0,156
1495,798	0,155
1454,464	0,155
1464,797	0,153
1466,089	0,153
1420,879	0,152
1424,754	0,151
1407,962	0,151
1396,337	0,151
1391,170	0,150
1371,794	0,150
1362,752	0,149
1335,626	0,149
1336,918	0,148
1320,126	0,147
1338,210	0,147
1322,709	0,147
1299,458	0,147
1290,417	0,146
1273,624	0,145
1245,207	0,144
1264,582	0,144
1223,248	0,143
1223,248	0,142
1214,206	0,142
1172,871	0,140
1185,788	0,140
1187,080	0,140
1179,330	0,139
1170,288	0,139
1125,078	0,138
1113,453	0,137
1091,494	0,136
1085,035	0,136
1092,785	0,135
1038,533	0,132
1029,491	0,131
1038,533	0,131
1025,616	0,131
971,365	0,130
986,865	0,128
977,823	0,128
928,738	0,127
910,654	0,125
920,988	0,125
908,071	0,125
862,861	0,123
878,362	0,122
842,194	0,122
844,777	0,120
834,444	0,119
760,816	0,118
787,942	0,116
780,192	0,116
772,442	0,116
747,899	0,114
728,523	0,113
706,564	0,110
685,897	0,110
685,897	0,108
632,236	0,108
608,571	0,104
608,177	0,104
597,922	0,104
588,456	0,101
573,863	0,101
537,183	0,099
534,817	0,098
517,069	0,097
511,547	0,096
477,233	0,094
461,063	0,093
470,134	0,092
476,839	0,091
449,625	0,091
454,752	0,091
382,181	0,090
343,529	0,083
342,740	0,081
301,328	0,081
278,057	0,075
253,604	0,074
256,759	0,073
248,477	0,073
238,222	0,071
179,672	0,070
162,989	0,065
109,729	0,061
93,558	0,057
42,274	0,056
9,913	0,049
5,444	0,046
2,054	0,046
1,477	0,045
2,144	0,045
1,361	0,045
0,783	0,046
0,398	0,045
0,334	0,045
0,809	0,045
1,477	0,045
1,823	0,045
-0,116	0,045
1,708	0,045
-0,244	0,045
-0,835	0,045
-1,027	0,045
-0,372	0,045
-2,093	0,045
-1,605	0,045
-1,220	0,045
-1,438	0,045
-1,271	0,045
-1,900	0,045
-2,427	0,045
-2,979	0,045
-1,284	0,045
-1,207	0,045
-0,629	0,045
-4,494	0,045
-118,712	0,045
-144,893	0,029
-158,497	0,026
-169,149	0,025
-179,672	0,023
-206,495	0,021
-236,141	0,017
-299,750	0,013
-331,697	0,004
-367,588	0,001
-379,026	-0,005
-410,184	-0,009
-423,988	-0,017
-444,497	-0,021
-459,485	-0,023
-457,907	-0,025
-503,264	-0,033
-502,870	-0,038
-535,211	-0,042
-551,776	-0,048
-568,736	-0,054
-604,233	-0,059
-638,941	-0,067
-669,704	-0,074
-697,707	-0,081
-700,468	-0,084
-751,347	-0,054
-769,884	-0,058
-784,083	-0,061
-856,403	-0,064
-911,946	-0,075
-910,654	-0,078
-931,322	-0,080
-931,322	-0,082
-972,656	-0,084
-985,573	-0,086
-1002,366	-0,087
-998,490	-0,089
-1041,117	-0,092
-1056,617	-0,096
-1055,326	-0,097
-1065,659	-0,099
-1105,702	-0,100
-1117,328	-0,102
-1126,370	-0,104
-1152,204	-0,106
-1150,912	-0,108
-1157,371	-0,108
-1185,788	-0,109
-1201,289	-0,113
-1230,998	-0,116
-1230,998	-0,117
-1272,333	-0,119
-1282,666	-0,122
-1294,292	-0,123
-1305,917	-0,124
-1283,958	-0,124
-1325,293	-0,125
-1322,709	-0,127
-1340,793	-0,128
-1373,086	-0,130
-1362,752	-0,131
-1351,127	-0,131
-1362,752	-0,131
-1367,919	-0,131
-1339,501	-0,132
-1407,962	-0,132
-1472,547	-0,139
-1481,589	-0,142
-1475,131	-0,143
-1490,631	-0,143
-1500,965	-0,146
-1534,549	-0,147
-1541,008	-0,148
-1535,841	-0,148
-1544,883	-0,149
-1583,634	-0,150
-1599,135	-0,153
-1587,510	-0,155
-1621,094	-0,156
-1623,677	-0,157
-1657,262	-0,158
-1657,262	-0,159
-1663,720	-0,160
-1680,512	-0,161
-1696,013	-0,162
-1699,888	-0,164
-1703,763	-0,165
-1711,514	-0,165
-1730,889	-0,167
-1739,931	-0,168
-1756,723	-0,169
-1773,516	-0,170
-1782,557	-0,170
-1794,183	-0,172
-1835,518	-0,173
-1809,683	-0,174
-1808,392	-0,175
-1826,475	-0,175
-1870,394	-0,177
-1879,436	-0,179
-1898,811	-0,180
-1913,020	-0,181
-1906,561	-0,181
-1933,687	-0,182
-1976,314	-0,186
-1989,231	-0,188
-1994,398	-0,190
-2015,065	-0,191
-2038,316	-0,191
-2070,609	-0,193
-2086,109	-0,196
-2113,235	-0,197
-2133,902	-0,200
-2148,111	-0,201
-2159,736	-0,201
-2182,987	-0,202
-2173,945	-0,203
-2201,071	-0,204
-2206,238	-0,204
-2213,988	-0,205
-2228,197	-0,207
-2229,489	-0,208
-2250,156	-0,209
-2254,031	-0,209
-2269,531	-0,210
-2291,491	-0,211
-2287,615	-0,213
-2322,492	-0,213
-2337,992	-0,215
-2336,700	-0,215
-2314,741	-0,215
-2317,324	-0,215
-2313,449	-0,215
-2328,950	-0,215
-2348,326	-0,215
-2365,118	-0,217
-2368,993	-0,218
-2380,618	-0,219
-2396,119	-0,219
-2375,451	-0,219
-2405,161	-0,220
-2402,577	-0,220
-2414,203	-0,220
-2419,370	-0,221
-2441,329	-0,224
-2436,162	-0,224
-2452,954	-0,224
-2460,704	-0,225
-2468,455	-0,225
-2461,996	-0,225
-2461,996	-0,225
-2472,330	-0,225
-2465,871	-0,226
-2480,080	-0,226
-2496,872	-0,227
-2518,831	-0,228
-2498,164	-0,228
-2517,540	-0,228
-2492,997	-0,228
-2505,914	-0,228
-2432,287	-0,227
-2430,995	-0,226
-2389,660	-0,225
-2359,951	-0,224
-2372,868	-0,224
-2359,951	-0,224
-2336,700	-0,222
-2319,908	-0,222
-2316,033	-0,221
-2331,533	-0,221
-2278,573	-0,221
-2257,906	-0,219
-2248,864	-0,219
-2204,946	-0,219
-2233,364	-0,218
-2193,321	-0,217
-2162,320	-0,217
-2154,569	-0,216
-2141,652	-0,216
-2144,236	-0,215
-2115,818	-0,215
-2079,650	-0,213
-2060,275	-0,212
-2052,524	-0,211
-2057,691	-0,211
-2031,857	-0,210
-2008,606	-0,210
-2012,482	-0,209
-1978,897	-0,209
-1975,022	-0,208
-1947,896	-0,207
-1951,771	-0,207
-1936,271	-0,207
-1931,104	-0,206
-1894,936	-0,204
-1879,436	-0,203
-1854,893	-0,203
-1832,934	-0,202
-1838,101	-0,202
-1838,101	-0,201
-1813,558	-0,201
-1807,100	-0,200
-1779,974	-0,199
-1736,056	-0,199
-1746,390	-0,198
-1733,473	-0,197
-1733,473	-0,196
-1720,555	-0,196
-1705,055	-0,195
-1683,096	-0,194
-1650,803	-0,193
-1645,636	-0,193
-1621,094	-0,192
-1622,386	-0,191
-1614,635	-0,191
-1613,344	-0,191
-1609,469	-0,190
-1588,801	-0,190
-1586,218	-0,189
-1548,758	-0,188
-1528,091	-0,187
-1506,132	-0,185
-1494,506	-0,184
-1482,881	-0,184
-1468,672	-0,183
-1451,880	-0,182
-1457,047	-0,182
-1459,630	-0,182
-1438,963	-0,182
-1417,004	-0,181
-1417,004	-0,180
-1401,503	-0,179
-1405,379	-0,179
-1380,836	-0,178
-1370,503	-0,178
-1360,169	-0,177
-1353,710	-0,176
-1314,959	-0,175
-1311,084	-0,174
-1299,458	-0,174
-1308,500	-0,173
-1283,958	-0,172
-1263,291	-0,171
-1228,415	-0,170
-1187,080	-0,169
-1172,871	-0,167
-1174,163	-0,165
-1157,371	-0,165
-1132,828	-0,163
-1118,619	-0,162
-1104,411	-0,162
-1056,617	-0,160
-1030,783	-0,157
-962,323	-0,155
-875,778	-0,148
-844,777	-0,143
-843,486	-0,142
-851,236	-0,142
-857,694	-0,142
-856,403	-0,142
-839,610	-0,142
-857,694	-0,142
-790,525	-0,139
-782,775	-0,137
-716,898	-0,135
-709,148	-0,131
-689,772	-0,131
-678,147	-0,130
-675,563	-0,128
-679,439	-0,128
-683,314	-0,127
-600,683	-0,126
-582,146	-0,121
-593,189	-0,121
-565,975	-0,119
-541,916	-0,117
-541,916	-0,117
-542,311	-0,116
-504,447	-0,114
-471,317	-0,113
-462,246	-0,109
-437,398	-0,108
-412,945	-0,105
-418,072	-0,104
-396,774	-0,104
-402,690	-0,103
-362,461	-0,100
-336,430	-0,098
-311,188	-0,095
-291,467	-0,093
-259,126	-0,091
-229,545	-0,085
-228,362	-0,084
-197,204	-0,083
-160,807	-0,079
-109,344	-0,073
-87,783	-0,068
-35,698	-0,066
-9,797	-0,059
-4,212	-0,056
-1,297	-0,056
-2,144	-0,056
-2,054	-0,056
-1,836	-0,056
-2,119	-0,056
-0,372	-0,056
1,194	-0,056
1,515	-0,056
1,233	-0,055
0,218	-0,056
1,387	-0,055
0,924	-0,055
0,924	-0,055
1,977	-0,055
1,053	-0,055
3,005	-0,055
6,767	-0,055
25,167	-0,055
134,369	-0,050
141,043	-0,037
150,797	-0,036
157,983	-0,035
170,432	-0,033
185,704	-0,031
187,758	-0,030
190,581	-0,030
192,891	-0,029
204,827	-0,029
213,810	-0,027
220,997	-0,026
247,820	-0,024
319,865	-0,019
324,992	-0,010
336,035	-0,008
351,417	-0,007
367,194	-0,015
401,113	-0,005
423,988	0,002
429,904	0,005
471,712	0,010
462,640	0,015
480,389	0,018
482,361	0,021
541,522	0,026
568,342	0,036
582,146	0,041
624,742	0,047
651,956	0,058
687,058	0,066
684,297	0,069
699,679	0,071
729,654	0,074
724,133	0,061
730,837	0,067
749,769	0,067
748,980	0,067
766,729	0,068
773,039	0,069
793,943	0,071
782,110	0,072
827,985	0,056
837,027	0,060
856,403	0,062
874,487	0,064
889,987	0,066
904,196	0,068
945,531	0,072
950,697	0,073
984,282	0,075
997,199	0,078
1021,741	0,081
1017,866	0,083
1026,908	0,084
1041,117	0,084
1066,951	0,085
1100,536	0,090
1117,328	0,093
1125,078	0,093
1128,953	0,094
1114,744	0,094
1121,203	0,094
1132,828	0,095
1110,869	0,095
1139,287	0,096
1157,371	0,096
1145,745	0,097
1157,371	0,098
1185,788	0,100
1202,580	0,104
1234,873	0,106
1249,082	0,107
1278,791	0,110
1300,750	0,113
1312,376	0,115
1330,459	0,118
1353,710	0,119
1393,753	0,122
1384,711	0,123
1395,045	0,124
1398,920	0,125
1415,712	0,126
1418,296	0,127
1427,338	0,127
1436,380	0,129
1444,130	0,129
1464,797	0,130
1455,755	0,131
1463,505	0,132
1442,838	0,132
1466,089	0,132
1451,880	0,132
1466,089	0,132
1462,214	0,133
1454,464	0,133
1463,505	0,133
1482,881	0,134
1494,506	0,135
1493,215	0,135
1498,382	0,136
1515,174	0,136
1525,507	0,138
1519,049	0,138
1534,549	0,139
1542,300	0,140
1534,549	0,141
1552,633	0,141
1548,758	0,142
1552,633	0,142
1568,134	0,142
1562,967	0,142
1578,468	0,142
1555,217	0,142
1564,259	0,143
1578,468	0,143
1568,134	0,143
1577,176	0,143
1569,426	0,144
1566,842	0,144
1586,218	0,144
1572,009	0,144
1587,510	0,145
1603,010	0,145
1610,760	0,146
1609,469	0,146
1596,552	0,147
1609,469	0,147
1617,219	0,147
1614,635	0,147
1622,386	0,148
1630,136	0,148
1630,136	0,149
1636,594	0,150
1646,928	0,150
1644,345	0,151
1657,262	0,152
1676,637	0,152
1681,804	0,153
1724,431	0,156
1721,847	0,158
1721,847	0,158
1748,973	0,159
1743,806	0,160
1758,015	0,161
1792,891	0,162
1795,475	0,165
1821,309	0,166
1832,934	0,167
1845,851	0,168
1861,352	0,170
1910,437	0,173
1936,271	0,177
1980,189	0,180
1987,939	0,181
1993,106	0,182
2027,982	0,184
2034,440	0,186
2049,941	0,187
2049,941	0,187
2044,774	0,187
2061,566	0,188
2080,942	0,190
2087,401	0,191
2101,609	0,192
2105,484	0,192
2149,403	0,195
2172,653	0,197
2166,195	0,199
2189,446	0,199
2213,988	0,199
2217,863	0,202
2229,489	0,203
2250,156	0,204
2263,073	0,205
2272,115	0,207
2314,741	0,208
2290,199	0,209
2308,283	0,210
2326,367	0,210
2328,950	0,211
2366,410	0,212
2384,494	0,214
2376,743	0,215
2384,494	0,216
2387,077	0,216
2398,702	0,216
2398,702	0,217
2433,578	0,218
2432,287	0,219
2429,703	0,219
2432,287	0,219
2451,662	0,219
2420,661	0,219
2434,870	0,219
2443,912	0,219
2430,995	0,219
2427,120	0,219
2429,703	0,219
2423,245	0,219
2437,454	0,219
2428,412	0,219
2452,954	0,220
2491,705	0,221
2474,913	0,224
2460,704	0,223
2474,913	0,223
2461,996	0,223
2471,038	0,223
2482,663	0,223
2471,038	0,223
2409,036	0,222
2367,701	0,220
2352,201	0,219
2305,699	0,219
2242,406	0,216
2168,778	0,213
2141,652	0,211
2120,985	0,210
2104,193	0,210
2096,443	0,209
2075,775	0,209
2035,732	0,207
2025,399	0,206
2027,982	0,205
1998,273	0,205
1996,981	0,205
1969,855	0,204
1951,771	0,203
1962,105	0,203
1951,771	0,202
1910,437	0,202
1889,769	0,200
1857,476	0,199
1822,600	0,198
1821,309	0,196
1805,808	0,196
1805,808	0,196
1781,266	0,195
1791,599	0,195
1759,307	0,194
1728,306	0,193
1703,763	0,192
1703,763	0,191
1685,679	0,190
1665,012	0,190
1648,220	0,189
1646,928	0,188
1639,178	0,188
1650,803	0,188
1624,969	0,187
1605,593	0,186
1569,426	0,185
1552,633	0,184
1553,925	0,184
1524,216	0,183
1497,090	0,181
1477,714	0,180
1476,422	0,179
1460,922	0,178
1453,172	0,177
1405,379	0,177
1391,170	0,176
1397,628	0,175
1398,920	0,175
1373,086	0,175
1322,709	0,174
1316,251	0,170
1285,250	0,169
1281,375	0,169
1246,499	0,167
1230,998	0,166
1221,956	0,165
1214,206	0,164
1170,288	0,163
1170,288	0,162
1154,787	0,161
1128,953	0,160
1128,953	0,159
1125,078	0,158
1090,202	0,157
1060,493	0,155
1021,741	0,153
1006,241	0,152
989,449	0,151
967,490	0,148
958,448	0,147
967,490	0,147
962,323	0,147
973,948	0,147
973,948	0,147
946,822	0,147
953,281	0,147
923,571	0,146
905,487	0,143
887,404	0,142
893,862	0,143
905,487	0,142
862,861	0,142
855,111	0,140
846,069	0,140
816,360	0,139
768,566	0,134
746,607	0,131
756,941	0,131
744,024	0,131
733,690	0,131
719,482	0,130
738,857	0,129
749,191	0,130
724,648	0,129
724,648	0,129
736,274	0,128
679,439	0,127
674,272	0,126
692,356	0,126
660,063	0,126
658,771	0,125
603,838	0,123
546,255	0,116
547,438	0,114
539,155	0,113
543,099	0,113
529,690	0,113
530,873	0,113
519,435	0,111
528,112	0,111
517,463	0,111
525,745	0,110
525,745	0,110
519,829	0,111
526,140	0,111
529,690	0,111
524,957	0,110
489,854	0,110
472,106	0,108
419,255	0,105
372,321	0,100
347,079	0,096
351,023	0,095
335,247	0,095
320,259	0,094
318,681	0,093
308,821	0,092
245,716	0,087
231,123	0,083
213,769	0,082
223,235	0,082
186,089	0,080
164,657	0,075
147,973	0,073
141,685	0,072
129,878	0,071
99,718	0,068
87,269	0,066
83,163	0,064
75,591	0,064
66,992	0,063
12,827	0,061
4,815	0,055
4,366	0,054
1,875	0,054
2,221	0,054
1,323	0,053
1,682	0,053
0,141	0,053
1,952	0,053
0,244	0,053
2,440	0,053
1,104	0,054
2,324	0,053
-0,629	0,053
-1,900	0,053
-2,183	0,053
-0,873	0,053
-1,746	0,053
-1,245	0,053
-2,298	0,053
-1,040	0,053
-1,310	0,053
-2,298	0,053
-1,258	0,053
-3,069	0,053
-2,825	0,053
-12,879	0,053
-114,734	0,050
-144,251	0,036
-161,962	0,032
-183,523	0,030
-198,923	0,027
-211,885	0,025
-222,024	0,023
-233,318	0,022
-244,611	0,021
-302,511	0,019
-336,824	0,010
-342,346	0,005
-353,389	0,009
-367,982	0,008
-407,818	0,006
-419,650	-0,002
-407,818	-0,004
-415,311	-0,006
-454,358	-0,009
-461,851	-0,014
-494,587	-0,020
-509,575	-0,028
-539,550	-0,033
-544,283	-0,038
-579,779	-0,042
-649,590	-0,055
-689,030	-0,067
-750,164	-0,079
-747,008	-0,087
-771,856	-0,055
-791,576	-0,059
-829,277	-0,061
-852,528	-0,065
-842,194	-0,066
-878,362	-0,067
-924,863	-0,070
-930,030	-0,073
-931,322	-0,076
-973,948	-0,078
-979,115	-0,081
-1016,574	-0,083
-1033,367	-0,086
-1021,741	-0,088
-1056,617	-0,089
-1081,160	-0,091
-1094,077	-0,094
-1099,244	-0,097
-1117,328	-0,098
-1125,078	-0,100
-1161,246	-0,102
-1168,996	-0,104
-1184,497	-0,106
-1211,622	-0,108
-1249,082	-0,111
-1260,707	-0,114
-1271,041	-0,116
-1278,791	-0,117
-1298,167	-0,118
-1314,959	-0,119
-1309,792	-0,121
-1326,584	-0,122
-1325,293	-0,123
-1321,418	-0,123
-1334,335	-0,123
-1353,710	-0,124
-1344,668	-0,126
-1362,752	-0,126
-1380,836	-0,127
-1395,045	-0,129
-1380,836	-0,130
-1404,087	-0,131
-1398,920	-0,132
-1409,254	-0,133
-1401,503	-0,134
-1464,797	-0,135
-1495,798	-0,139
-1538,425	-0,142
-1534,549	-0,144
-1531,966	-0,144
-1546,175	-0,146
-1552,633	-0,147
-1572,009	-0,148
-1591,385	-0,149
-1603,010	-0,152
-1613,344	-0,153
-1615,927	-0,154
-1646,928	-0,155
-1634,011	-0,156
-1663,720	-0,158
-1643,053	-0,158
-1679,221	-0,159
-1689,554	-0,160
-1705,055	-0,161
-1730,889	-0,162
-1703,763	-0,162
-1729,597	-0,164
-1728,306	-0,165
-1746,390	-0,166
-1774,807	-0,167
-1760,598	-0,167
-1795,475	-0,168
-1799,350	-0,169
-1799,350	-0,170
-1798,058	-0,171
-1835,518	-0,173
-1827,767	-0,174
-1838,101	-0,174
-1848,435	-0,174
-1852,310	-0,175
-1875,560	-0,176
-1883,311	-0,178
-1911,728	-0,179
-1903,978	-0,179
-1898,811	-0,180
-1969,855	-0,183
-1950,479	-0,185
-1956,938	-0,185
-1967,272	-0,186
-2003,440	-0,187
-2017,648	-0,189
-2065,441	-0,191
-2062,858	-0,194
-2086,109	-0,195
-2089,984	-0,195
-2110,651	-0,196
-2117,110	-0,199
-2164,903	-0,201
-2199,779	-0,203
-2198,487	-0,205
-2199,779	-0,205
-2201,071	-0,205
-2241,114	-0,207
-2287,615	-0,210
-2306,991	-0,211
-2322,492	-0,213
-2308,283	-0,213
-2313,449	-0,213
-2326,367	-0,214
-2303,116	-0,214
-2332,825	-0,214
-2361,243	-0,217
-2378,035	-0,218
-2399,994	-0,218
-2389,660	-0,220
-2447,787	-0,221
-2459,413	-0,223
-2494,289	-0,225
-2518,831	-0,228
-2544,665	-0,230
-2573,083	-0,231
-2556,291	-0,231
-2627,335	-0,235
-2662,405	-0,237
-2686,001	-0,239
-2693,866	-0,241
-2689,934	-0,242
-2697,799	-0,243
-2741,058	-0,243
-2776,452	-0,245
-2823,644	-0,248
-2847,240	-0,251
-2874,768	-0,252
-2894,431	-0,254
-2933,758	-0,255
-2945,556	-0,258
-2965,219	-0,259
-2965,219	-0,260
-2988,815	-0,261
-3000,613	-0,261
-3000,613	-0,262
-3032,074	-0,263
-3055,670	-0,265
-3067,468	-0,265
-3059,603	-0,267
-3102,862	-0,268
-3114,660	-0,269
-3130,391	-0,270
-3134,323	-0,270
-3134,323	-0,270
-3138,256	-0,270
-3126,458	-0,271
-3130,391	-0,271
-3126,458	-0,271
-3146,121	-0,271
-3126,458	-0,271
-3130,391	-0,271
-3126,458	-0,270
-3087,132	-0,270
-3059,603	-0,269
-3000,613	-0,267
-2969,152	-0,266
-2929,825	-0,264
-2886,566	-0,262
-2855,105	-0,261
-2843,307	-0,261
-2819,711	-0,261
-2788,250	-0,260
-2772,520	-0,259
-2721,395	-0,257
-2670,271	-0,255
-2654,540	-0,254
-2579,819	-0,252
-2536,560	-0,250
-2516,897	-0,248
-2446,109	-0,246
-2410,716	-0,244
-2387,119	-0,244
-2343,860	-0,242
-2296,668	-0,239
-2269,140	-0,238
-2273,073	-0,237
-2218,015	-0,236
-2170,823	-0,234
-2123,632	-0,232
-2115,767	-0,230
-2068,575	-0,229
-2033,181	-0,228
-2021,383	-0,226
-1978,124	-0,225
-1920,770	-0,222
-1894,936	-0,220
-1816,142	-0,218
-1787,724	-0,215
-1774,807	-0,213
-1758,015	-0,212
-1754,140	-0,212
-1743,806	-0,212
-1750,265	-0,211
-1730,889	-0,210
-1714,097	-0,209
-1680,512	-0,208
-1677,929	-0,207
-1644,345	-0,206
-1621,094	-0,204
-1617,219	-0,204
-1605,593	-0,204
-1533,258	-0,201
-1499,673	-0,199
-1490,631	-0,197
-1471,256	-0,196
-1462,214	-0,195
-1409,254	-0,193
-1386,003	-0,191
-1295,583	-0,186
-1271,041	-0,184
-1249,082	-0,182
-1230,998	-0,180
-1205,164	-0,177
-1144,453	-0,175
-1131,536	-0,173
-1095,369	-0,171
-1048,867	-0,168
-1024,325	-0,165
-997,199	-0,164
-957,156	-0,160
-955,864	-0,159
-928,738	-0,159
-878,362	-0,155
-837,027	-0,151
-816,360	-0,149
-772,442	-0,146
-751,774	-0,143
-768,566	-0,143
-711,731	-0,141
-689,772	-0,138
-675,563	-0,136
-627,108	-0,134
-583,723	-0,130
-552,171	-0,127
-545,071	-0,124
-545,466	-0,123
-522,985	-0,122
-493,798	-0,119
-472,500	-0,116
-452,780	-0,115
-438,187	-0,115
-425,172	-0,111
-379,815	-0,108
-341,163	-0,104
-329,330	-0,101
-279,635	-0,096
-260,309	-0,093
-252,027	-0,092
-241,378	-0,091
-118,712	-0,087
-82,393	-0,073
-39,416	-0,069
-9,566	-0,063
-3,724	-0,059
-3,030	-0,059
-1,027	-0,059
-2,478	-0,059
-0,629	-0,059
-1,733	-0,059
-0,360	-0,059
-1,682	-0,059
-0,360	-0,059
-1,245	-0,059
-1,271	-0,059
-1,387	-0,059
0,180	-0,059
0,539	-0,059
1,541	-0,058
0,989	-0,058
3,428	-0,059
113,579	-0,056
145,663	-0,041
169,534	-0,037
196,870	-0,033
219,200	-0,030
237,039	-0,027
254,365	-0,024
328,147	-0,022
382,970	-0,008
443,709	-0,008
488,277	0,008
518,252	0,018
528,901	0,024
564,792	0,035
617,642	0,044
646,829	0,053
664,183	0,058
681,537	0,063
713,089	0,068
730,837	0,075
741,487	0,064
762,785	0,048
789,999	0,052
847,361	0,055
873,195	0,061
900,321	0,066
962,323	0,071
1016,574	0,077
1043,700	0,082
1073,410	0,087
1136,703	0,092
1206,456	0,099
1232,290	0,104
1256,832	0,108
1269,749	0,110
1295,583	0,112
1299,458	0,114
1333,043	0,116
1318,834	0,118
1318,834	0,117
1325,293	0,118
1327,876	0,118
1324,001	0,118
1373,086	0,121
1389,878	0,123
1427,338	0,127
1466,089	0,130
1473,839	0,133
1490,631	0,134
1504,840	0,136
1512,590	0,138
1528,091	0,140
1562,967	0,142
1575,884	0,144
1584,926	0,145
1615,927	0,146
1626,261	0,148
1648,220	0,151
1683,096	0,153
1716,680	0,157
1717,972	0,158
1743,806	0,160
1759,307	0,161
1813,558	0,165
1865,227	0,170
1920,770	0,175
1950,479	0,178
1938,854	0,179
1951,771	0,179
1993,106	0,180
2026,690	0,183
2049,941	0,186
2086,109	0,190
2120,985	0,193
2139,069	0,195
2153,278	0,198
2188,154	0,199
2216,571	0,200
2229,489	0,202
2263,073	0,205
2322,492	0,207
2337,992	0,211
2359,951	0,213
2401,286	0,216
2424,537	0,218
2447,787	0,219
2468,455	0,220
2508,498	0,223
2542,082	0,226
2575,666	0,228
2627,335	0,231
2646,674	0,234
2713,530	0,237
2721,395	0,240
2776,452	0,242
2870,835	0,248
2945,556	0,253
2980,950	0,258
2984,883	0,259
3020,277	0,259
3059,603	0,261
3114,660	0,265
3110,727	0,267
3130,391	0,268
3153,987	0,269
3134,323	0,269
3130,391	0,269
3142,188	0,269
3130,391	0,269
3126,458	0,268
3126,458	0,269
3130,391	0,269
3130,391	0,269
3130,391	0,269
3138,256	0,269
3130,391	0,269
3126,458	0,269
3098,929	0,268
3039,940	0,267
3008,478	0,265
2996,680	0,264
2953,421	0,263
2862,970	0,261
2815,779	0,259
2800,048	0,257
2760,721	0,256
2725,327	0,255
2674,203	0,253
2630,944	0,252
2623,079	0,251
2591,617	0,250
2524,762	0,248
2481,503	0,246
2438,244	0,244
2359,591	0,241
2304,534	0,239
2284,871	0,237
2288,803	0,236
2273,073	0,236
2261,274	0,235
2249,477	0,235
2218,015	0,234
2214,083	0,233
2194,419	0,233
2190,487	0,232
2178,689	0,231
2143,295	0,230
2111,834	0,229
2103,969	0,228
2084,305	0,227
2068,575	0,227
2060,709	0,226
2044,979	0,225
2001,719	0,225
1993,854	0,223
1982,056	0,222
1978,124	0,222
1941,438	0,221
1929,812	0,219
1889,769	0,218
1860,060	0,217
1865,227	0,216
1851,018	0,216
1827,767	0,214
1818,725	0,213
1778,682	0,212
1770,932	0,211
1732,181	0,210
1739,931	0,210
1710,222	0,208
1708,930	0,208
1681,804	0,207
1671,470	0,205
1622,386	0,203
1600,427	0,202
1591,385	0,200
1556,508	0,199
1528,091	0,197
1497,090	0,195
1482,881	0,194
1419,587	0,192
1404,087	0,190
1347,252	0,188
1267,166	0,183
1224,539	0,178
1174,163	0,175
1168,996	0,174
1132,828	0,172
1122,494	0,170
1073,410	0,168
1044,992	0,165
1034,658	0,164
1034,658	0,162
1010,116	0,162
1016,574	0,162
1016,574	0,162
1006,241	0,162
1008,824	0,162
949,406	0,159
924,863	0,157
933,905	0,156
901,612	0,155
904,196	0,154
901,612	0,153
887,404	0,153
869,320	0,151
843,486	0,149
824,110	0,147
786,650	0,144
744,024	0,142
727,232	0,140
696,231	0,138
685,897	0,135
657,480	0,134
569,130	0,130
544,677	0,124
506,025	0,120
437,793	0,116
369,560	0,107
343,135	0,102
326,175	0,101
282,396	0,098
264,253	0,092
250,055	0,091
225,996	0,089
164,272	0,084
147,716	0,079
115,247	0,076
77,773	0,071
28,926	0,067
6,882	0,061
3,056	0,058
1,682	0,058
0,193	0,057
1,310	0,057
1,913	0,057
1,104	0,057
1,258	0,057
2,247	0,057
2,003	0,057
-0,103	0,057
0,950	0,057
1,233	0,057
2,234	0,057
2,144	0,057
0,385	0,057
0,475	0,057
0,526	0,057
0,886	0,057
1,502	0,057
0,873	0,057
1,836	0,057
1,258	0,057
1,258	0,057
1,746	0,057
1,489	0,057
1,181	0,057
1,759	0,057
0,360	0,057
1,939	0,057
0,924	0,057
0,308	0,057
1,823	0,057
0,809	0,057
0,873	0,057
1,669	0,057
1,579	0,057
1,104	0,057
0,257	0,057
1,695	0,057
