Frecuencia	Espectro	Angulo de fase
f/kHz	U/V	phi/rad

0,000	1,25	6,28
0,020	0,00	3,43
0,039	0,00	3,07
0,059	0,00	2,67
0,078	0,00	2,74
0,098	0,00	2,85
0,117	0,00	2,78
0,137	0,00	2,44
0,156	0,00	3,03
0,176	0,00	2,58
0,195	0,00	2,48
0,215	0,00	2,70
0,234	0,00	2,50
0,254	0,00	2,30
0,273	0,00	2,43
0,293	0,00	2,16
0,313	0,00	2,34
0,332	0,00	2,40
0,352	0,00	2,37
0,371	0,00	2,34
0,391	0,00	2,24
0,410	0,00	2,13
0,430	0,00	2,10
0,449	0,00	2,07
0,469	0,00	2,16
0,488	0,00	1,96
0,508	0,00	2,03
0,527	0,00	2,06
0,547	0,00	1,93
0,566	0,00	1,94
0,586	0,00	1,97
0,605	0,00	1,87
0,625	0,00	1,91
0,645	0,00	1,90
0,664	0,00	1,85
0,684	0,01	1,80
0,703	0,01	1,81
0,723	0,01	1,81
0,742	0,01	1,74
0,762	0,01	1,76
0,781	0,01	1,71
0,801	0,01	1,72
0,820	0,01	1,70
0,840	0,01	1,75
0,859	0,01	1,65
0,879	0,01	1,63
0,898	0,02	1,64
0,918	0,02	1,62
0,938	0,03	1,57
0,957	0,05	1,63
0,977	0,09	1,60
0,996	4,31	1,59
1,016	0,10	4,71
1,035	0,05	4,69
1,055	0,03	4,72
1,074	0,02	4,70
1,094	0,02	4,69
1,113	0,02	4,65
1,133	0,01	4,66
1,152	0,01	4,63
1,172	0,01	4,63
1,191	0,01	4,61
1,211	0,01	4,59
1,230	0,01	4,57
1,250	0,01	4,61
1,270	0,01	4,55
1,289	0,01	4,58
1,309	0,01	4,53
1,328	0,01	4,52
1,348	0,01	4,53
1,367	0,01	4,53
1,387	0,01	4,52
1,406	0,01	4,56
1,426	0,00	4,42
1,445	0,00	4,31
1,465	0,00	4,50
1,484	0,01	4,52
1,504	0,00	4,48
1,523	0,00	4,50
1,543	0,00	4,42
1,563	0,00	4,48
1,582	0,00	4,44
1,602	0,00	4,42
1,621	0,00	4,37
1,641	0,00	4,37
1,660	0,00	4,37
1,680	0,00	4,40
1,699	0,00	4,34
1,719	0,00	4,34
1,738	0,00	4,31
1,758	0,00	4,34
1,777	0,00	4,26
1,797	0,00	4,35
1,816	0,00	4,28
1,836	0,00	4,18
1,855	0,00	4,34
1,875	0,00	4,23
1,895	0,00	4,28
1,914	0,00	4,31
1,934	0,00	4,31
1,953	0,00	4,43
1,973	0,00	4,00
1,992	0,01	3,97
2,012	0,00	3,94
2,031	0,00	5,53
2,051	0,00	4,51
2,070	0,00	4,35
2,090	0,00	4,17
2,109	0,00	4,08
2,129	0,00	4,25
2,148	0,00	4,01
2,168	0,00	4,57
2,188	0,00	4,28
2,207	0,00	4,26
2,227	0,00	4,26
2,246	0,00	4,19
2,266	0,00	4,12
2,285	0,00	4,21
2,305	0,00	4,20
2,324	0,00	4,25
2,344	0,00	4,15
2,363	0,00	4,08
2,383	0,00	4,00
2,402	0,00	4,07
2,422	0,00	4,22
2,441	0,00	4,11
2,461	0,00	4,16
2,480	0,00	4,09
2,500	0,00	4,09
2,520	0,00	4,06
2,539	0,00	4,12
2,559	0,00	4,01
2,578	0,00	3,97
2,598	0,00	4,18
2,617	0,00	4,20
2,637	0,00	4,24
2,656	0,00	4,20
2,676	0,00	3,98
2,695	0,00	4,02
2,715	0,00	4,18
2,734	0,00	3,99
2,754	0,00	3,97
2,773	0,00	4,17
2,793	0,00	4,06
2,813	0,00	4,44
2,832	0,00	0,72
2,852	0,00	3,86
2,871	0,00	3,77
2,891	0,00	4,05
2,910	0,00	4,01
2,930	0,00	3,80
2,949	0,00	3,53
2,969	0,00	3,90
2,988	0,00	4,58
3,008	0,00	3,09
3,027	0,01	4,42
3,047	0,00	4,13
3,066	0,00	3,86
3,086	0,00	3,62
3,105	0,00	3,90
3,125	0,00	3,79
3,145	0,00	3,86
3,164	0,00	3,82
3,184	0,00	3,90
3,203	0,00	3,82
3,223	0,00	3,86
3,242	0,00	3,85
3,262	0,00	4,34
3,281	0,00	3,76
3,301	0,00	3,83
3,320	0,00	3,74
3,340	0,00	3,84
3,359	0,00	3,71
3,379	0,00	3,55
3,398	0,00	3,82
3,418	0,00	3,60
3,438	0,00	3,78
3,457	0,00	3,68
3,477	0,00	4,14
3,496	0,00	3,62
3,516	0,00	3,58
3,535	0,00	3,56
3,555	0,00	4,11
3,574	0,00	3,59
3,594	0,00	3,70
3,613	0,00	3,79
3,633	0,00	3,55
3,652	0,00	3,73
3,672	0,00	3,89
3,691	0,00	3,86
3,711	0,00	3,67
3,730	0,00	3,80
3,750	0,00	3,73
3,770	0,00	3,04
3,789	0,00	3,73
3,809	0,00	3,46
3,828	0,00	3,67
3,848	0,00	3,73
3,867	0,00	3,82
3,887	0,00	3,68
3,906	0,00	3,61
3,926	0,00	3,76
3,945	0,00	3,55
3,965	0,00	5,47
3,984	0,01	0,04
4,004	0,00	3,79
4,023	0,01	3,08
4,043	0,00	3,30
4,063	0,00	3,42
4,082	0,00	3,48
4,102	0,00	3,31
4,121	0,00	3,45
4,141	0,00	3,32
4,160	0,00	3,63
4,180	0,00	3,60
4,199	0,00	2,67
4,219	0,00	3,25
4,238	0,00	3,65
4,258	0,00	3,61
4,277	0,00	3,46
4,297	0,00	3,50
4,316	0,00	3,42
4,336	0,00	3,51
4,355	0,00	3,62
4,375	0,00	3,50
4,395	0,00	3,57
4,414	0,00	3,59
4,434	0,00	3,83
4,453	0,00	2,72
4,473	0,00	3,24
4,492	0,00	3,21
4,512	0,00	3,40
4,531	0,00	3,23
4,551	0,00	3,60
4,570	0,00	2,61
4,590	0,00	3,19
4,609	0,00	3,28
4,629	0,00	3,28
4,648	0,00	3,33
4,668	0,00	3,26
4,688	0,00	3,21
4,707	0,00	3,42
4,727	0,00	3,39
4,746	0,00	3,40
4,766	0,00	3,38
4,785	0,00	3,30
4,805	0,00	3,38
4,824	0,00	3,43
4,844	0,00	3,67
4,863	0,00	3,93
4,883	0,00	2,60
4,902	0,00	3,08
4,922	0,00	3,70
4,941	0,00	3,39
4,961	0,00	3,59
4,980	0,01	4,57
